%OpenBCI Raw EEG Data
%Number of channels = 8
%Sample Rate = 250 Hz
%Board = OpenBCI_GUI$BoardCytonSerial
Sample Index, EXG Channel 0, EXG Channel 1, EXG Channel 2, EXG Channel 3, EXG Channel 4, EXG Channel 5, EXG Channel 6, EXG Channel 7, Accel Channel 0, Accel Channel 1, Accel Channel 2, Other, Other, Other, Other, Other, Other, Other, Analog Channel 0, Analog Channel 1, Analog Channel 2, Timestamp, Other, Timestamp (Formatted)
61.0, 26367.816492058813, -4176.512858451946, 16068.378516242328, -3063.8430194667603, 15100.235056905158, 7836.365143819469, -187500.02235174447, -187500.02235174447, 0.0, 0.0, 0.0, 192.0, 0.0, 0.0, 0.0, 0.0, 0.0, 0.0, 0.0, 0.0, 0.0, 1.6776152920846517E9, 0.0, 2023-02-28 12:14:52.084
62.0, 26316.20631411151, -4171.662529905144, 15892.179714701142, -3052.4436297945535, 15010.246933728093, 7686.004958868619, -187500.02235174447, -187500.02235174447, 0.0, 0.0, 0.0, 192.0, 0.0, 0.0, 0.0, 0.0, 0.0, 0.0, 0.0, 0.0, 0.0, 1.677615292084685E9, 0.0, 2023-02-28 12:14:52.084
63.0, 26205.22990289091, -4170.947274082574, 15099.586856315955, -3044.6205192351963, 14597.074937471742, 7366.59853060228, -187500.02235174447, -187500.02235174447, -0.228, -0.706, -0.684, 192.0, 248.0, 224.0, 233.0, 240.0, 234.0, 160.0, 0.0, 0.0, 0.0, 1.6776152920847013E9, 0.0, 2023-02-28 12:14:52.084
64.0, 26244.837194065716, -4177.116355552239, 15164.563377447532, -3054.9023216846376, 14615.381016180638, 7479.541895334947, -187500.02235174447, -187500.02235174447, -0.228, -0.706, -0.684, 192.0, 0.0, 0.0, 0.0, 0.0, 0.0, 0.0, 0.0, 0.0, 0.0, 1.6776152920847185E9, 0.0, 2023-02-28 12:14:52.084
0.0, 0.0, 0.0, 0.0, 0.0, 0.0, 0.0, 0.0, 0.0, -0.20800000000000002, -0.734, -0.656, 192.0, 249.0, 128.0, 233.0, 16.0, 235.0, 128.0, 0.0, 0.0, 0.0, 1.6776152921875885E9, 0.0, 2023-02-28 12:14:52.187
1.0, 27193.556987471224, -4219.517614783957, 16271.60057682998, -3145.71745940655, 15245.364933653467, 7715.308095849526, -187500.02235174447, -187500.02235174447, -0.20800000000000002, -0.734, -0.656, 192.0, 0.0, 0.0, 0.0, 0.0, 0.0, 0.0, 0.0, 0.0, 0.0, 1.6776152922046573E9, 0.0, 2023-02-28 12:14:52.204
2.0, 27051.176375290917, -4218.444731050102, 15430.01269459876, -3136.1509127796785, 14810.69055923111, 7360.384745643705, -187500.02235174447, -187500.02235174447, -0.20800000000000002, -0.734, -0.656, 192.0, 0.0, 0.0, 0.0, 0.0, 0.0, 0.0, 0.0, 0.0, 0.0, 1.677615292207759E9, 0.0, 2023-02-28 12:14:52.207
3.0, 27051.176375290917, -4221.372809573747, 15297.153925556413, -3142.09647680479, 14737.53329962889, 7392.146574514696, -187500.02235174447, -187500.02235174447, -0.20800000000000002, -0.734, -0.656, 192.0, 0.0, 0.0, 0.0, 0.0, 0.0, 0.0, 0.0, 0.0, 0.0, 1.677615292210654E9, 0.0, 2023-02-28 12:14:52.210
4.0, 27186.89616762354, -4226.133731142728, 16122.335627357439, -3153.875846132737, 15161.188264034781, 7750.847369533464, -187500.02235174447, -187500.02235174447, -0.20800000000000002, -0.734, -0.656, 192.0, 0.0, 0.0, 0.0, 0.0, 0.0, 0.0, 0.0, 0.0, 0.0, 1.6776152922146115E9, 0.0, 2023-02-28 12:14:52.214
5.0, 27201.08952535266, -4225.999620675996, 16363.66741224139, -3150.500732719986, 15289.062594063593, 7762.91731153933, -187500.02235174447, -187500.02235174447, -0.20800000000000002, -0.734, -0.656, 192.0, 0.0, 0.0, 0.0, 0.0, 0.0, 0.0, 0.0, 0.0, 0.0, 1.6776152922185485E9, 0.0, 2023-02-28 12:14:52.218
6.0, 27062.218137051837, -4222.825672963342, 15566.067763098214, -3139.883654103715, 14879.176304242172, 7402.651894408691, -187500.02235174447, -187500.02235174447, -0.20800000000000002, -0.734, -0.656, 192.0, 0.0, 0.0, 0.0, 0.0, 0.0, 0.0, 0.0, 0.0, 0.0, 1.677615292222617E9, 0.0, 2023-02-28 12:14:52.222
7.0, 27026.187124989883, -4224.904385197686, 15225.516584577153, -3142.9011396051815, 14698.507153809924, 7344.000916957965, -187500.02235174447, -187500.02235174447, -0.20800000000000002, -0.734, -0.656, 192.0, 0.0, 0.0, 0.0, 0.0, 0.0, 0.0, 0.0, 0.0, 0.0, 1.6776152922266319E9, 0.0, 2023-02-28 12:14:52.226
8.0, 27155.760187597298, -4229.486492811024, 15971.327241817386, -3155.105192077779, 15080.297300851023, 7695.705615962222, -187500.02235174447, -187500.02235174447, -0.196, -0.754, -0.642, 192.0, 249.0, 224.0, 232.0, 112.0, 235.0, 240.0, 0.0, 0.0, 0.0, 1.6776152922306066E9, 0.0, 2023-02-28 12:14:52.230
9.0, 27210.276092323795, -4227.36307708777, 16415.523459377702, -3152.847665887793, 15314.968265887293, 7801.049387580084, -187500.02235174447, -187500.02235174447, -0.196, -0.754, -0.642, 192.0, 0.0, 0.0, 0.0, 0.0, 0.0, 0.0, 0.0, 0.0, 0.0, 1.6776152922336164E9, 0.0, 2023-02-28 12:14:52.233
10.0, 27093.287061844716, -4222.088065396317, 15719.870116695181, -3139.883654103715, 14957.385058091291, 7462.107534659807, -187500.02235174447, -187500.02235174447, -0.196, -0.754, -0.642, 192.0, 0.0, 0.0, 0.0, 0.0, 0.0, 0.0, 0.0, 0.0, 0.0, 1.6776152922376957E9, 0.0, 2023-02-28 12:14:52.237
11.0, 27033.71966287132, -4222.490396796513, 15195.006453395661, -3139.8613023592598, 14679.530522767369, 7323.616126014725, -187500.02235174447, -187500.02235174447, -0.196, -0.754, -0.642, 192.0, 0.0, 0.0, 0.0, 0.0, 0.0, 0.0, 0.0, 0.0, 0.0, 1.6776152922427416E9, 0.0, 2023-02-28 12:14:52.242
12.0, 27149.926382294463, -4226.491359054013, 15813.143946307177, -3151.90889262067, 14996.858238799363, 7643.089609514429, -187500.02235174447, -187500.02235174447, -0.196, -0.754, -0.642, 192.0, 0.0, 0.0, 0.0, 0.0, 0.0, 0.0, 0.0, 0.0, 0.0, 1.6776152922456336E9, 0.0, 2023-02-28 12:14:52.245
13.0, 27229.364482088626, -4225.21730962006, 16428.308657206137, -3153.6076251992736, 15321.36086480151, 7830.732504216731, -187500.02235174447, -187500.02235174447, -0.196, -0.754, -0.642, 192.0, 0.0, 0.0, 0.0, 0.0, 0.0, 0.0, 0.0, 0.0, 0.0, 1.6776152922496252E9, 0.0, 2023-02-28 12:14:52.249
14.0, 27124.914780248975, -4220.299925839892, 15879.103944194789, -3141.761200637961, 15043.796902155507, 7535.912994851232, -187500.02235174447, -187500.02235174447, -0.196, -0.754, -0.642, 192.0, 0.0, 0.0, 0.0, 0.0, 0.0, 0.0, 0.0, 0.0, 0.0, 1.677615292253693E9, 0.0, 2023-02-28 12:14:52.253
15.0, 27028.511706413236, -4219.0482281503955, 15205.310607589558, -3139.3919157256983, 14693.276845607383, 7311.367370053216, -187500.02235174447, -187500.02235174447, -0.196, -0.754, -0.642, 192.0, 0.0, 0.0, 0.0, 0.0, 0.0, 0.0, 0.0, 0.0, 0.0, 1.6776152922577033E9, 0.0, 2023-02-28 12:14:52.257
16.0, 27120.913817991477, -4220.6352020067225, 15652.434903673518, -3149.5172559639523, 14919.834127406375, 7571.228751090616, -187500.02235174447, -187500.02235174447, -0.196, -0.754, -0.642, 192.0, 0.0, 0.0, 0.0, 0.0, 0.0, 0.0, 0.0, 0.0, 0.0, 1.6776152922626655E9, 0.0, 2023-02-28 12:14:52.262
17.0, 27235.913543214032, -4220.545795028901, 16397.284435902173, -3153.0935350768013, 15307.435728005854, 7837.393324064413, -187500.02235174447, -187500.02235174447, -0.196, -0.754, -0.642, 192.0, 0.0, 0.0, 0.0, 0.0, 0.0, 0.0, 0.0, 0.0, 0.0, 1.6776152922666397E9, 0.0, 2023-02-28 12:14:52.266
18.0, 27158.12947250956, -4219.539966528412, 16035.387341426294, -3143.392877983198, 15126.341894428957, 7603.12469042834, -187500.02235174447, -187500.02235174447, -0.194, -0.756, -0.632, 192.0, 249.0, 240.0, 232.0, 96.0, 236.0, 64.0, 0.0, 0.0, 0.0, 1.6776152922706912E9, 0.0, 2023-02-28 12:14:52.270
19.0, 27036.535982672693, -4217.8188822053535, 15253.59037561302, -3137.492017446997, 14719.495441853458, 7317.648210245158, -187500.02235174447, -187500.02235174447, -0.194, -0.756, -0.632, 192.0, 0.0, 0.0, 0.0, 0.0, 0.0, 0.0, 0.0, 0.0, 0.0, 1.6776152922736664E9, 0.0, 2023-02-28 12:14:52.273
20.0, 27099.79141948121, -4217.304792082881, 15504.153430957012, -3145.5162937064524, 14845.089893947828, 7509.269715460506, -187500.02235174447, -187500.02235174447, -0.194, -0.756, -0.632, 192.0, 0.0, 0.0, 0.0, 0.0, 0.0, 0.0, 0.0, 0.0, 0.0, 1.6776152922778192E9, 0.0, 2023-02-28 12:14:52.277
21.0, 27223.597732019156, -4220.031704906429, 16329.446891480315, -3152.534741465419, 15271.672936877363, 7827.357390803981, -187500.02235174447, -187500.02235174447, -0.194, -0.756, -0.632, 192.0, 0.0, 0.0, 0.0, 0.0, 0.0, 0.0, 0.0, 0.0, 0.0, 1.6776152922817144E9, 0.0, 2023-02-28 12:14:52.281
22.0, 27175.80970237371, -4219.383504317225, 16178.147933262342, -3144.488113461508, 15197.465145285743, 7673.823258140476, -187500.02235174447, -187500.02235174447, -0.194, -0.756, -0.632, 192.0, 0.0, 0.0, 0.0, 0.0, 0.0, 0.0, 0.0, 0.0, 0.0, 1.6776152922856765E9, 0.0, 2023-02-28 12:14:52.285
23.0, 27049.20942177885, -4217.282440338426, 15339.75635048823, -3136.3744302242317, 14762.075515040819, 7338.792960499878, -187500.02235174447, -187500.02235174447, -0.194, -0.756, -0.632, 192.0, 0.0, 0.0, 0.0, 0.0, 0.0, 0.0, 0.0, 0.0, 0.0, 1.6776152922896523E9, 0.0, 2023-02-28 12:14:52.289
24.0, 27075.02568662473, -4220.210518862071, 15374.826237538606, -3144.063430316857, 14777.766439648443, 7441.946261161121, -187500.02235174447, -187500.02235174447, -0.194, -0.756, -0.632, 192.0, 0.0, 0.0, 0.0, 0.0, 0.0, 0.0, 0.0, 0.0, 0.0, 1.677615292294617E9, 0.0, 2023-02-28 12:14:52.294
25.0, 27209.24791207885, -4222.26687935196, 16221.175041338807, -3153.071183332346, 15215.860630972462, 7794.120346798939, -187500.02235174447, -187500.02235174447, -0.194, -0.756, -0.632, 192.0, 0.0, 0.0, 0.0, 0.0, 0.0, 0.0, 0.0, 0.0, 0.0, 1.6776152922986417E9, 0.0, 2023-02-28 12:14:52.298
26.0, 27195.658051450024, -4221.395161318203, 16291.895960795398, -3147.1479710516896, 15256.719619836764, 7729.635564045378, -187500.02235174447, -187500.02235174447, -0.194, -0.756, -0.632, 192.0, 0.0, 0.0, 0.0, 0.0, 0.0, 0.0, 0.0, 0.0, 0.0, 1.6776152923016572E9, 0.0, 2023-02-28 12:14:52.301
27.0, 27063.60394520807, -4218.7576554724765, 15455.448979788898, -3137.6484796581844, 14827.789643739421, 7366.419716646638, -187500.02235174447, -187500.02235174447, -0.194, -0.756, -0.632, 192.0, 0.0, 0.0, 0.0, 0.0, 0.0, 0.0, 0.0, 0.0, 0.0, 1.677615292305709E9, 0.0, 2023-02-28 12:14:52.305
28.0, 27062.06167484065, -4217.863585694264, 15275.092753779025, -3142.2305872715224, 14730.939535014575, 7383.429394177127, -187500.02235174447, -187500.02235174447, -0.188, -0.764, -0.636, 192.0, 250.0, 32.0, 232.0, 32.0, 236.0, 32.0, 0.0, 0.0, 0.0, 1.677615292309808E9, 0.0, 2023-02-28 12:14:52.309
29.0, 27198.586129973668, -4218.914117683664, 16086.841057162412, -3152.780610654427, 15147.441941194767, 7749.595671843967, -187500.02235174447, -187500.02235174447, -0.188, -0.764, -0.636, 192.0, 0.0, 0.0, 0.0, 0.0, 0.0, 0.0, 0.0, 0.0, 0.0, 1.677615292313671E9, 0.0, 2023-02-28 12:14:52.313
30.0, 27233.812479235232, -4216.410722304669, 16374.6644705134, -3148.8243518858376, 15305.64758844943, 7779.748175114176, -187500.02235174447, -187500.02235174447, -0.188, -0.764, -0.636, 192.0, 0.0, 0.0, 0.0, 0.0, 0.0, 0.0, 0.0, 0.0, 0.0, 1.6776152923176556E9, 0.0, 2023-02-28 12:14:52.317
31.0, 27108.84387598561, -4213.013257147462, 15595.393251823576, -3137.112037791257, 14904.478478965579, 7421.784987662433, -187500.02235174447, -187500.02235174447, -0.188, -0.764, -0.636, 192.0, 0.0, 0.0, 0.0, 0.0, 0.0, 0.0, 0.0, 0.0, 0.0, 1.6776152923228197E9, 0.0, 2023-02-28 12:14:52.322
32.0, 27065.235622553304, -4214.734341470521, 15213.357235593467, -3139.3695639812427, 14700.719976511, 7346.638422803691, -187500.02235174447, -187500.02235174447, -0.188, -0.764, -0.636, 192.0, 0.0, 0.0, 0.0, 0.0, 0.0, 0.0, 0.0, 0.0, 0.0, 1.677615292326706E9, 0.0, 2023-02-28 12:14:52.326
33.0, 27187.969051357395, -4217.684771738622, 15937.039665822944, -3151.260692031466, 15070.753105968608, 7691.794060682543, -187500.02235174447, -187500.02235174447, -0.188, -0.764, -0.636, 192.0, 0.0, 0.0, 0.0, 0.0, 0.0, 0.0, 0.0, 0.0, 0.0, 1.677615292329759E9, 0.0, 2023-02-28 12:14:52.329
34.0, 27237.43346183699, -4216.902460682686, 16420.7761193247, -3151.1936367981, 15324.087777625058, 7814.527489486634, -187500.02235174447, -187500.02235174447, -0.188, -0.764, -0.636, 192.0, 0.0, 0.0, 0.0, 0.0, 0.0, 0.0, 0.0, 0.0, 0.0, 1.677615292333698E9, 0.0, 2023-02-28 12:14:52.333
35.0, 27110.60966379758, -4216.522481026946, 15751.050800210334, -3140.6659651596506, 14980.094430457882, 7481.017110468997, -187500.02235174447, -187500.02235174447, -0.188, -0.764, -0.636, 192.0, 0.0, 0.0, 0.0, 0.0, 0.0, 0.0, 0.0, 0.0, 0.0, 1.6776152923377323E9, 0.0, 2023-02-28 12:14:52.337
36.0, 27035.15017451646, -4217.483606038524, 15189.329110304012, -3138.7437151364943, 14686.705432737523, 7321.045675402364, -187500.02235174447, -187500.02235174447, -0.188, -0.764, -0.636, 192.0, 0.0, 0.0, 0.0, 0.0, 0.0, 0.0, 0.0, 0.0, 0.0, 1.677615292341754E9, 0.0, 2023-02-28 12:14:52.341
37.0, 27147.959428782397, -4220.657553751177, 15772.799047565348, -3150.143104808701, 14984.877703771319, 7628.717437829667, -187500.02235174447, -187500.02235174447, -0.188, -0.764, -0.636, 192.0, 0.0, 0.0, 0.0, 0.0, 0.0, 0.0, 0.0, 0.0, 0.0, 1.6776152923458233E9, 0.0, 2023-02-28 12:14:52.345
38.0, 27247.15647067505, -4219.651725250688, 16421.513726891724, -3151.685375176117, 15324.087777625058, 7837.0580478975835, -187500.02235174447, -187500.02235174447, -0.184, -0.766, -0.628, 192.0, 250.0, 64.0, 232.0, 16.0, 236.0, 96.0, 0.0, 0.0, 0.0, 1.6776152923506947E9, 0.0, 2023-02-28 12:14:52.350
39.0, 27152.76505384029, -4216.030742648929, 15909.502316654005, -3140.241282015, 15064.673431476765, 7550.821608402921, -187500.02235174447, -187500.02235174447, -0.184, -0.766, -0.628, 192.0, 0.0, 0.0, 0.0, 0.0, 0.0, 0.0, 0.0, 0.0, 0.0, 1.6776152923547845E9, 0.0, 2023-02-28 12:14:52.354
40.0, 27044.962590332343, -4214.3543618147805, 15208.10457564647, -3136.4414854575975, 14696.696662509044, 7316.061236388831, -187500.02235174447, -187500.02235174447, -0.184, -0.766, -0.628, 192.0, 0.0, 0.0, 0.0, 0.0, 0.0, 0.0, 0.0, 0.0, 0.0, 1.6776152923577523E9, 0.0, 2023-02-28 12:14:52.357
41.0, 27125.630036071547, -4215.74016997101, 15615.845098000182, -3146.7903431404047, 14901.572752186388, 7564.992614387586, -187500.02235174447, -187500.02235174447, -0.184, -0.766, -0.628, 192.0, 0.0, 0.0, 0.0, 0.0, 0.0, 0.0, 0.0, 0.0, 0.0, 1.6776152923618147E9, 0.0, 2023-02-28 12:14:52.361
42.0, 27245.4800898409, -4216.857757193775, 16384.85686598502, -3152.6688519321506, 15303.211248303802, 7838.555614776089, -187500.02235174447, -187500.02235174447, -0.184, -0.766, -0.628, 192.0, 0.0, 0.0, 0.0, 0.0, 0.0, 0.0, 0.0, 0.0, 0.0, 1.6776152923657515E9, 0.0, 2023-02-28 12:14:52.365
43.0, 27173.485120950358, -4216.209556604571, 16064.13168479582, -3143.4152297276532, 15143.03864753707, 7619.396760391804, -187500.02235174447, -187500.02235174447, -0.184, -0.766, -0.628, 192.0, 0.0, 0.0, 0.0, 0.0, 0.0, 0.0, 0.0, 0.0, 0.0, 1.677615292369769E9, 0.0, 2023-02-28 12:14:52.369
44.0, 27050.59522993508, -4216.678943238133, 15266.397925185911, -3138.0284593139245, 14727.407959390637, 7321.11273063573, -187500.02235174447, -187500.02235174447, -0.184, -0.766, -0.628, 192.0, 0.0, 0.0, 0.0, 0.0, 0.0, 0.0, 0.0, 0.0, 0.0, 1.6776152923737247E9, 0.0, 2023-02-28 12:14:52.373
45.0, 27103.300643360693, -4220.702257240088, 15473.86681722007, -3147.103267562779, 14827.83434722833, 7495.948075765143, -187500.02235174447, -187500.02235174447, -0.184, -0.766, -0.628, 192.0, 0.0, 0.0, 0.0, 0.0, 0.0, 0.0, 0.0, 0.0, 0.0, 1.6776152923787215E9, 0.0, 2023-02-28 12:14:52.378
46.0, 27236.137060658584, -4222.0433619074065, 16309.486783681725, -3154.367584510754, 15260.340602438522, 7822.663524468366, -187500.02235174447, -187500.02235174447, -0.184, -0.766, -0.628, 192.0, 0.0, 0.0, 0.0, 0.0, 0.0, 0.0, 0.0, 0.0, 0.0, 1.67761529238179E9, 0.0, 2023-02-28 12:14:52.381
47.0, 27198.921406140496, -4219.9870014175185, 16201.930189362789, -3145.6057006842734, 15211.636151270408, 7682.160458822305, -187500.02235174447, -187500.02235174447, -0.184, -0.766, -0.628, 192.0, 0.0, 0.0, 0.0, 0.0, 0.0, 0.0, 0.0, 0.0, 0.0, 1.6776152923857749E9, 0.0, 2023-02-28 12:14:52.385
48.0, 27064.989753364298, -4221.506920040479, 15359.47058909781, -3137.0673343023464, 14777.49821871498, 7339.865844233733, -187500.02235174447, -187500.02235174447, -0.186, -0.76, -0.628, 192.0, 250.0, 48.0, 232.0, 64.0, 236.0, 96.0, 0.0, 0.0, 0.0, 1.677615292389828E9, 0.0, 2023-02-28 12:14:52.389
49.0, 27086.067448385653, -4226.424303820647, 15351.647478538453, -3145.046907072891, 14767.194064521083, 7425.651839453201, -187500.02235174447, -187500.02235174447, -0.186, -0.76, -0.628, 192.0, 0.0, 0.0, 0.0, 0.0, 0.0, 0.0, 0.0, 0.0, 0.0, 1.6776152923937783E9, 0.0, 2023-02-28 12:14:52.393
50.0, 27221.00492966234, -4229.955879444585, 16197.72806140519, -3155.6192822002513, 15200.90731393186, 7783.838544349497, -187500.02235174447, -187500.02235174447, -0.186, -0.76, -0.628, 192.0, 0.0, 0.0, 0.0, 0.0, 0.0, 0.0, 0.0, 0.0, 0.0, 1.6776152923977544E9, 0.0, 2023-02-28 12:14:52.397
51.0, 27204.107010854128, -4227.743056743509, 16308.190382503319, -3149.8078286418713, 15262.575776884054, 7738.308040894037, -187500.02235174447, -187500.02235174447, -0.186, -0.76, -0.628, 192.0, 0.0, 0.0, 0.0, 0.0, 0.0, 0.0, 0.0, 0.0, 0.0, 1.6776152924018033E9, 0.0, 2023-02-28 12:14:52.401
52.0, 27060.49705272878, -4224.300888097392, 15459.67345949095, -3138.855473858771, 14824.749806493499, 7370.2865684374065, -187500.02235174447, -187500.02235174447, -0.186, -0.76, -0.628, 192.0, 0.0, 0.0, 0.0, 0.0, 0.0, 0.0, 0.0, 0.0, 0.0, 1.6776152924067695E9, 0.0, 2023-02-28 12:14:52.406
53.0, 27058.708913172355, -4223.697390997099, 15313.515402497698, -3143.370526238743, 14743.188290976082, 7402.093100797308, -187500.02235174447, -187500.02235174447, -0.186, -0.76, -0.628, 192.0, 0.0, 0.0, 0.0, 0.0, 0.0, 0.0, 0.0, 0.0, 0.0, 1.677615292409872E9, 0.0, 2023-02-28 12:14:52.409
54.0, 27195.434534005468, -4223.40681831918, 16112.724377241657, -3152.3559275097764, 15156.404990721345, 7760.72684058271, -187500.02235174447, -187500.02235174447, -0.186, -0.76, -0.628, 192.0, 0.0, 0.0, 0.0, 0.0, 0.0, 0.0, 0.0, 0.0, 0.0, 1.6776152924138117E9, 0.0, 2023-02-28 12:14:52.413
55.0, 27213.114763869617, -4221.775140973943, 16347.462397511292, -3147.326785007332, 15281.798277115617, 7771.343919198981, -187500.02235174447, -187500.02235174447, -0.186, -0.76, -0.628, 192.0, 0.0, 0.0, 0.0, 0.0, 0.0, 0.0, 0.0, 0.0, 0.0, 1.677615292417871E9, 0.0, 2023-02-28 12:14:52.417
56.0, 27073.304602301672, -4221.261050851471, 15567.230053809888, -3137.0226308134356, 14874.549493139923, 7418.029894593942, -187500.02235174447, -187500.02235174447, -0.186, -0.76, -0.628, 192.0, 0.0, 0.0, 0.0, 0.0, 0.0, 0.0, 0.0, 0.0, 0.0, 1.6776152924218247E9, 0.0, 2023-02-28 12:14:52.421
57.0, 27039.709930385347, -4225.93256544263, 15236.759512038174, -3141.694145404595, 14696.584903786768, 7361.971719500032, -187500.02235174447, -187500.02235174447, -0.186, -0.76, -0.628, 192.0, 0.0, 0.0, 0.0, 0.0, 0.0, 0.0, 0.0, 0.0, 0.0, 1.677615292425782E9, 0.0, 2023-02-28 12:14:52.425
58.0, 27168.455978447913, -4230.782893989432, 15965.180512092176, -3154.144067066201, 15072.809466458497, 7705.093348633451, -187500.02235174447, -187500.02235174447, -0.18, -0.764, -0.63, 192.0, 250.0, 96.0, 232.0, 32.0, 236.0, 80.0, 0.0, 0.0, 0.0, 1.6776152924297993E9, 0.0, 2023-02-28 12:14:52.429
59.0, 27225.38587157558, -4231.520501556457, 16400.81601152611, -3153.585273454818, 15305.893457638438, 7807.911373127863, -187500.02235174447, -187500.02235174447, -0.18, -0.764, -0.63, 192.0, 0.0, 0.0, 0.0, 0.0, 0.0, 0.0, 0.0, 0.0, 0.0, 1.6776152924348447E9, 0.0, 2023-02-28 12:14:52.434
60.0, 27098.405611324983, -4231.073466667351, 15718.77488121687, -3143.5716919388406, 14953.987592934083, 7472.09876443133, -187500.02235174447, -187500.02235174447, -0.18, -0.764, -0.63, 192.0, 0.0, 0.0, 0.0, 0.0, 0.0, 0.0, 0.0, 0.0, 0.0, 1.67761529243784E9, 0.0, 2023-02-28 12:14:52.437
61.0, 27025.33775870058, -4234.023896935451, 15207.121098890437, -3144.376354739232, 14683.442078047048, 7328.779378983901, -187500.02235174447, -187500.02235174447, -0.18, -0.764, -0.63, 192.0, 0.0, 0.0, 0.0, 0.0, 0.0, 0.0, 0.0, 0.0, 0.0, 1.677615292441856E9, 0.0, 2023-02-28 12:14:52.441
62.0, 27129.51923960677, -4238.673059782155, 15807.55601019335, -3155.2169508000557, 14994.935988776208, 7634.260670454582, -187500.02235174447, -187500.02235174447, -0.18, -0.764, -0.63, 192.0, 0.0, 0.0, 0.0, 0.0, 0.0, 0.0, 0.0, 0.0, 0.0, 1.6776152924458487E9, 0.0, 2023-02-28 12:14:52.445
63.0, 27217.4733540384, -4238.181321404138, 16415.09877623305, -3156.8262764008377, 15314.722396698286, 7820.2718878116475, -187500.02235174447, -187500.02235174447, -0.18, -0.764, -0.63, 192.0, 0.0, 0.0, 0.0, 0.0, 0.0, 0.0, 0.0, 0.0, 0.0, 1.6776152924498477E9, 0.0, 2023-02-28 12:14:52.449
64.0, 27112.308396376182, -4233.912138213174, 15874.432429603628, -3145.1810175396226, 15035.951439851695, 7528.246346503061, -187500.02235174447, -187500.02235174447, -0.18, -0.764, -0.63, 192.0, 0.0, 0.0, 0.0, 0.0, 0.0, 0.0, 0.0, 0.0, 0.0, 1.6776152924538627E9, 0.0, 2023-02-28 12:14:52.453
65.0, 27014.720680084312, -4232.056943423384, 15212.060834415059, -3143.236415772011, 14688.873551949688, 7311.367370053216, -187500.02235174447, -187500.02235174447, -0.18, -0.764, -0.63, 192.0, 0.0, 0.0, 0.0, 0.0, 0.0, 0.0, 0.0, 0.0, 0.0, 1.677615292457872E9, 0.0, 2023-02-28 12:14:52.457
66.0, 27114.454163843893, -4233.398048090702, 15652.725476351437, -3153.6970321770946, 14913.75445291453, 7573.352166813871, -187500.02235174447, -187500.02235174447, -0.18, -0.764, -0.63, 192.0, 0.0, 0.0, 0.0, 0.0, 0.0, 0.0, 0.0, 0.0, 0.0, 1.6776152924628303E9, 0.0, 2023-02-28 12:14:52.462
67.0, 27226.05642390924, -4230.604080033789, 16388.880179986976, -3156.5804072118294, 15301.400757002923, 7836.543957775111, -187500.02235174447, -187500.02235174447, -0.18, -0.764, -0.63, 192.0, 0.0, 0.0, 0.0, 0.0, 0.0, 0.0, 0.0, 0.0, 0.0, 1.6776152924658537E9, 0.0, 2023-02-28 12:14:52.465
68.0, 27146.283047948247, -4223.831501463831, 16025.619629099327, -3144.488113461508, 15117.512955369111, 7603.370559617349, -187500.02235174447, -187500.02235174447, -0.188, -0.77, -0.63, 192.0, 250.0, 32.0, 231.0, 240.0, 236.0, 80.0, 0.0, 0.0, 0.0, 1.6776152924688916E9, 0.0, 2023-02-28 12:14:52.468
69.0, 27034.904305327454, -4219.092931639306, 15259.06655300457, -3138.0061075694693, 14714.086319695274, 7319.21283235703, -187500.02235174447, -187500.02235174447, -0.188, -0.77, -0.63, 192.0, 0.0, 0.0, 0.0, 0.0, 0.0, 0.0, 0.0, 0.0, 0.0, 1.677615292473869E9, 0.0, 2023-02-28 12:14:52.473
70.0, 27101.78072473773, -4221.462216551568, 15508.333207170155, -3147.885578618715, 14838.22790840005, 7505.268753203006, -187500.02235174447, -187500.02235174447, -0.188, -0.77, -0.63, 192.0, 0.0, 0.0, 0.0, 0.0, 0.0, 0.0, 0.0, 0.0, 0.0, 1.6776152924778652E9, 0.0, 2023-02-28 12:14:52.477
71.0, 27229.34213034417, -4224.993792175507, 16320.975580331753, -3156.468648489553, 15262.620480372963, 7822.708227957276, -187500.02235174447, -187500.02235174447, -0.188, -0.77, -0.63, 192.0, 0.0, 0.0, 0.0, 0.0, 0.0, 0.0, 0.0, 0.0, 0.0, 1.677615292482031E9, 0.0, 2023-02-28 12:14:52.482
72.0, 27183.118722810596, -4222.512748540968, 16165.161569733807, -3147.617357685251, 15187.473915514222, 7669.442316227236, -187500.02235174447, -187500.02235174447, -0.188, -0.77, -0.63, 192.0, 0.0, 0.0, 0.0, 0.0, 0.0, 0.0, 0.0, 0.0, 0.0, 1.6776152924859736E9, 0.0, 2023-02-28 12:14:52.485
73.0, 27054.93146835941, -4222.6915624966105, 15342.192690633858, -3139.2801570034217, 14759.438009195092, 7339.284698877896, -187500.02235174447, -187500.02235174447, -0.188, -0.77, -0.63, 192.0, 0.0, 0.0, 0.0, 0.0, 0.0, 0.0, 0.0, 0.0, 0.0, 1.6776152924909217E9, 0.0, 2023-02-28 12:14:52.490
74.0, 27078.669020970945, -4223.831501463831, 15387.454973155855, -3146.1868460401115, 14779.35341350477, 7448.070639141874, -187500.02235174447, -187500.02235174447, -0.188, -0.77, -0.63, 192.0, 0.0, 0.0, 0.0, 0.0, 0.0, 0.0, 0.0, 0.0, 0.0, 1.6776152924938626E9, 0.0, 2023-02-28 12:14:52.493
75.0, 27207.303310311236, -4224.949088686596, 16215.944733136266, -3155.9545583670806, 15211.837316970506, 7791.415785719846, -187500.02235174447, -187500.02235174447, -0.188, -0.77, -0.63, 192.0, 0.0, 0.0, 0.0, 0.0, 0.0, 0.0, 0.0, 0.0, 0.0, 1.6776152924968886E9, 0.0, 2023-02-28 12:14:52.496
76.0, 27190.740667669856, -4223.898556697197, 16277.769658299645, -3149.4278489861313, 15250.237613944724, 7723.846462231453, -187500.02235174447, -187500.02235174447, -0.188, -0.77, -0.63, 192.0, 0.0, 0.0, 0.0, 0.0, 0.0, 0.0, 0.0, 0.0, 0.0, 1.6776152925019484E9, 0.0, 2023-02-28 12:14:52.501
77.0, 27052.092796813584, -4221.037533406918, 15460.38871531352, -3138.520197691941, 14823.989847182018, 7375.494524895493, -187500.02235174447, -187500.02235174447, -0.188, -0.77, -0.63, 192.0, 0.0, 0.0, 0.0, 0.0, 0.0, 0.0, 0.0, 0.0, 0.0, 1.6776152925059035E9, 0.0, 2023-02-28 12:14:52.505
78.0, 27046.594267677578, -4222.378638074236, 15293.354128999012, -3143.772857638938, 14730.53720361438, 7393.197106504096, -187500.02235174447, -187500.02235174447, -0.184, -0.766, -0.63, 192.0, 250.0, 64.0, 232.0, 16.0, 236.0, 80.0, 0.0, 0.0, 0.0, 1.6776152925098994E9, 0.0, 2023-02-28 12:14:52.509
79.0, 27187.678478679478, -4224.680867753133, 16082.795391416, -3154.0323083439243, 15140.110569013426, 7748.8357125324865, -187500.02235174447, -187500.02235174447, -0.184, -0.766, -0.63, 192.0, 0.0, 0.0, 0.0, 0.0, 0.0, 0.0, 0.0, 0.0, 0.0, 1.6776152925139546E9, 0.0, 2023-02-28 12:14:52.513
80.0, 27216.10989762663, -4223.8091497193755, 16359.688801728345, -3149.561959452863, 15291.11895455348, 7777.580055902012, -187500.02235174447, -187500.02235174447, -0.184, -0.766, -0.63, 192.0, 0.0, 0.0, 0.0, 0.0, 0.0, 0.0, 0.0, 0.0, 0.0, 1.6776152925178957E9, 0.0, 2023-02-28 12:14:52.517
81.0, 27080.16658784945, -4222.736265985521, 15595.192086123478, -3139.2578052589665, 14893.32495848238, 7425.763598175478, -187500.02235174447, -187500.02235174447, -0.184, -0.766, -0.63, 192.0, 0.0, 0.0, 0.0, 0.0, 0.0, 0.0, 0.0, 0.0, 0.0, 1.677615292522009E9, 0.0, 2023-02-28 12:14:52.522
82.0, 27034.59138090508, -4224.16677763066, 15226.947096222293, -3142.409401227165, 14693.880342707676, 7355.199140930074, -187500.02235174447, -187500.02235174447, -0.184, -0.766, -0.63, 192.0, 0.0, 0.0, 0.0, 0.0, 0.0, 0.0, 0.0, 0.0, 0.0, 1.6776152925250304E9, 0.0, 2023-02-28 12:14:52.525
83.0, 27160.23053648836, -4226.9160421986635, 15934.424511721672, -3154.166418810656, 15061.253614575102, 7691.436432771258, -187500.02235174447, -187500.02235174447, -0.184, -0.766, -0.63, 192.0, 0.0, 0.0, 0.0, 0.0, 0.0, 0.0, 0.0, 0.0, 0.0, 1.6776152925299747E9, 0.0, 2023-02-28 12:14:52.529
84.0, 27221.787240718277, -4226.290193353915, 16407.87916277399, -3153.182942054623, 15312.867201908495, 7810.660637695866, -187500.02235174447, -187500.02235174447, -0.184, -0.766, -0.63, 192.0, 0.0, 0.0, 0.0, 0.0, 0.0, 0.0, 0.0, 0.0, 0.0, 1.6776152925339632E9, 0.0, 2023-02-28 12:14:52.533
85.0, 27108.061564929674, -4222.244527607504, 15749.217957165, -3140.8671308597486, 14971.936043731695, 7487.38735763876, -187500.02235174447, -187500.02235174447, -0.184, -0.766, -0.63, 192.0, 0.0, 0.0, 0.0, 0.0, 0.0, 0.0, 0.0, 0.0, 0.0, 1.6776152925379567E9, 0.0, 2023-02-28 12:14:52.537
86.0, 27033.026758793207, -4222.8703764522525, 15202.15901162136, -3140.0624680593573, 14683.062098391307, 7332.378009841205, -187500.02235174447, -187500.02235174447, -0.184, -0.766, -0.63, 192.0, 0.0, 0.0, 0.0, 0.0, 0.0, 0.0, 0.0, 0.0, 0.0, 1.6776152925418916E9, 0.0, 2023-02-28 12:14:52.541
87.0, 27139.532821122746, -4225.843158464809, 15773.536655132373, -3151.90889262067, 14977.121648445327, 7633.210138465183, -187500.02235174447, -187500.02235174447, -0.184, -0.766, -0.63, 192.0, 0.0, 0.0, 0.0, 0.0, 0.0, 0.0, 0.0, 0.0, 0.0, 1.6776152925458915E9, 0.0, 2023-02-28 12:14:52.545
88.0, 27226.10112739815, -4225.284364853426, 16412.304808176137, -3154.43463974412, 15314.431824020367, 7839.494388043212, -187500.02235174447, -187500.02235174447, -0.18, -0.768, -0.636, 192.0, 250.0, 96.0, 232.0, 0.0, 236.0, 32.0, 0.0, 0.0, 0.0, 1.6776152925499303E9, 0.0, 2023-02-28 12:14:52.549
89.0, 27123.46191685938, -4222.26687935196, 15902.550924128405, -3142.9681948385473, 15057.78909418453, 7555.738992183089, -187500.02235174447, -187500.02235174447, -0.18, -0.768, -0.636, 192.0, 0.0, 0.0, 0.0, 0.0, 0.0, 0.0, 0.0, 0.0, 0.0, 1.6776152925549648E9, 0.0, 2023-02-28 12:14:52.554
90.0, 27022.43203192139, -4221.64103050721, 15211.636151270408, -3138.7660668809494, 14697.233104375971, 7321.380951569195, -187500.02235174447, -187500.02235174447, -0.18, -0.768, -0.636, 192.0, 0.0, 0.0, 0.0, 0.0, 0.0, 0.0, 0.0, 0.0, 0.0, 1.67761529255793E9, 0.0, 2023-02-28 12:14:52.557
91.0, 27110.520256819756, -4227.36307708777, 15619.242563157388, -3149.785476897416, 14905.57371444389, 7564.143248098284, -187500.02235174447, -187500.02235174447, -0.18, -0.768, -0.636, 192.0, 0.0, 0.0, 0.0, 0.0, 0.0, 0.0, 0.0, 0.0, 0.0, 1.6776152925620024E9, 0.0, 2023-02-28 12:14:52.562
92.0, 27230.25855186684, -4232.995716690507, 16377.078458914575, -3156.6474624451953, 15299.679672679864, 7837.88506244243, -187500.02235174447, -187500.02235174447, -0.18, -0.768, -0.636, 192.0, 0.0, 0.0, 0.0, 0.0, 0.0, 0.0, 0.0, 0.0, 0.0, 1.677615292565977E9, 0.0, 2023-02-28 12:14:52.565
93.0, 27155.983705041854, -4232.347516101303, 16055.45920794716, -3147.2820815184214, 15134.790853833063, 7619.7543883030885, -187500.02235174447, -187500.02235174447, -0.18, -0.768, -0.636, 192.0, 0.0, 0.0, 0.0, 0.0, 0.0, 0.0, 0.0, 0.0, 0.0, 1.6776152925699975E9, 0.0, 2023-02-28 12:14:52.569
94.0, 27022.722604599312, -4230.827597478342, 15272.812875844584, -3141.4482762155862, 14721.596505832256, 7328.712323750535, -187500.02235174447, -187500.02235174447, -0.18, -0.768, -0.636, 192.0, 0.0, 0.0, 0.0, 0.0, 0.0, 0.0, 0.0, 0.0, 0.0, 1.6776152925729604E9, 0.0, 2023-02-28 12:14:52.572
95.0, 27077.88670991501, -4231.833425978831, 15483.433363846943, -3150.299567019888, 14824.36982683776, 7503.122985735296, -187500.02235174447, -187500.02235174447, -0.18, -0.768, -0.636, 192.0, 0.0, 0.0, 0.0, 0.0, 0.0, 0.0, 0.0, 0.0, 0.0, 1.677615292577002E9, 0.0, 2023-02-28 12:14:52.577
96.0, 27221.697833740454, -4229.955879444585, 16302.356577200482, -3157.5191804789524, 15252.785712812629, 7826.26215532567, -187500.02235174447, -187500.02235174447, -0.18, -0.768, -0.636, 192.0, 0.0, 0.0, 0.0, 0.0, 0.0, 0.0, 0.0, 0.0, 0.0, 1.6776152925809531E9, 0.0, 2023-02-28 12:14:52.580
97.0, 27185.957394356417, -4225.865510209263, 16189.39086072336, -3148.5114274634634, 15199.834430198007, 7687.435470513758, -187500.02235174447, -187500.02235174447, -0.18, -0.768, -0.636, 192.0, 0.0, 0.0, 0.0, 0.0, 0.0, 0.0, 0.0, 0.0, 0.0, 1.6776152925859623E9, 0.0, 2023-02-28 12:14:52.585
98.0, 27042.41449146444, -4224.725571242043, 15362.666888554919, -3140.5095029484637, 14768.758686632955, 7345.9231669811215, -187500.02235174447, -187500.02235174447, -0.182, -0.768, -0.634, 192.0, 250.0, 80.0, 232.0, 0.0, 236.0, 48.0, 0.0, 0.0, 0.0, 1.6776152925900145E9, 0.0, 2023-02-28 12:14:52.590
99.0, 27069.661267955456, -4226.401952076191, 15364.455028111342, -3147.371488496243, 14765.852959853764, 7434.838406424333, -187500.02235174447, -187500.02235174447, -0.182, -0.768, -0.634, 192.0, 0.0, 0.0, 0.0, 0.0, 0.0, 0.0, 0.0, 0.0, 0.0, 1.6776152925940948E9, 0.0, 2023-02-28 12:14:52.594
100.0, 27209.24791207885, -4227.631298021233, 16189.457915956727, -3155.9322066226255, 15196.414613296345, 7784.196172260782, -187500.02235174447, -187500.02235174447, -0.182, -0.768, -0.634, 192.0, 0.0, 0.0, 0.0, 0.0, 0.0, 0.0, 0.0, 0.0, 0.0, 1.6776152925979872E9, 0.0, 2023-02-28 12:14:52.597
101.0, 27199.591958474157, -4226.223138120548, 16297.08156550903, -3149.71842166405, 15256.49610239221, 7740.543215339568, -187500.02235174447, -187500.02235174447, -0.182, -0.768, -0.634, 192.0, 0.0, 0.0, 0.0, 0.0, 0.0, 0.0, 0.0, 0.0, 0.0, 1.6776152926009736E9, 0.0, 2023-02-28 12:14:52.600
102.0, 27055.512613715247, -4224.12207414175, 15483.96980571387, -3139.5707296813407, 14835.277478131948, 7388.056205279376, -187500.02235174447, -187500.02235174447, -0.182, -0.768, -0.634, 192.0, 0.0, 0.0, 0.0, 0.0, 0.0, 0.0, 0.0, 0.0, 0.0, 1.6776152926050358E9, 0.0, 2023-02-28 12:14:52.605
103.0, 27044.470851954324, -4225.239661364515, 15274.444553189822, -3144.376354739232, 14720.098938953752, 7389.50906866897, -187500.02235174447, -187500.02235174447, -0.182, -0.768, -0.634, 192.0, 0.0, 0.0, 0.0, 0.0, 0.0, 0.0, 0.0, 0.0, 0.0, 1.6776152926089962E9, 0.0, 2023-02-28 12:14:52.608
104.0, 27181.71056290991, -4227.36307708777, 16053.715771879646, -3155.5969304557957, 15124.933734528273, 7740.9678984842185, -187500.02235174447, -187500.02235174447, -0.182, -0.768, -0.634, 192.0, 0.0, 0.0, 0.0, 0.0, 0.0, 0.0, 0.0, 0.0, 0.0, 1.6776152926130707E9, 0.0, 2023-02-28 12:14:52.613
105.0, 27215.975787159896, -4224.457350308579, 16374.95504319132, -3152.847665887793, 15297.176277300869, 7789.49353569669, -187500.02235174447, -187500.02235174447, -0.182, -0.768, -0.634, 192.0, 0.0, 0.0, 0.0, 0.0, 0.0, 0.0, 0.0, 0.0, 0.0, 1.6776152926180365E9, 0.0, 2023-02-28 12:14:52.618
106.0, 27084.525178018237, -4220.12111188425, 15628.47383361743, -3141.2471105154887, 14910.267580779504, 7440.8957291717215, -187500.02235174447, -187500.02235174447, -0.182, -0.768, -0.634, 192.0, 0.0, 0.0, 0.0, 0.0, 0.0, 0.0, 0.0, 0.0, 0.0, 1.67761529262203E9, 0.0, 2023-02-28 12:14:52.622
107.0, 27037.765328617734, -4219.6964287395995, 15219.369854851944, -3141.6270901712287, 14693.00862467392, 7348.717135038035, -187500.02235174447, -187500.02235174447, -0.182, -0.768, -0.634, 192.0, 0.0, 0.0, 0.0, 0.0, 0.0, 0.0, 0.0, 0.0, 0.0, 1.677615292626036E9, 0.0, 2023-02-28 12:14:52.626
108.0, 27158.911783565498, -4224.502053797491, 15899.980473516045, -3153.585273454818, 15043.618088199866, 7677.8689238868865, -187500.02235174447, -187500.02235174447, -0.182, -0.772, -0.634, 192.0, 250.0, 80.0, 231.0, 224.0, 236.0, 48.0, 0.0, 0.0, 0.0, 1.6776152926290736E9, 0.0, 2023-02-28 12:14:52.629
109.0, 27225.452926808946, -4224.189129375116, 16411.81306979812, -3152.9817763545248, 15314.722396698286, 7817.768492432653, -187500.02235174447, -187500.02235174447, -0.182, -0.772, -0.634, 192.0, 0.0, 0.0, 0.0, 0.0, 0.0, 0.0, 0.0, 0.0, 0.0, 1.6776152926329947E9, 0.0, 2023-02-28 12:14:52.632
110.0, 27109.55913180818, -4218.198861861094, 15779.772791835403, -3141.113000048757, 14990.040956740495, 7499.122023477796, -187500.02235174447, -187500.02235174447, -0.182, -0.772, -0.634, 192.0, 0.0, 0.0, 0.0, 0.0, 0.0, 0.0, 0.0, 0.0, 0.0, 1.6776152926370416E9, 0.0, 2023-02-28 12:14:52.637
111.0, 27029.852811080553, -4216.947164171596, 15202.337825577, -3140.5765581818296, 14685.90076993713, 7324.577251026303, -187500.02235174447, -187500.02235174447, -0.182, -0.772, -0.634, 192.0, 0.0, 0.0, 0.0, 0.0, 0.0, 0.0, 0.0, 0.0, 0.0, 1.6776152926410868E9, 0.0, 2023-02-28 12:14:52.641
112.0, 27138.638751344533, -4219.472911295046, 15744.92642222958, -3151.685375176117, 14964.358802361347, 7613.853527766887, -187500.02235174447, -187500.02235174447, -0.182, -0.772, -0.634, 192.0, 0.0, 0.0, 0.0, 0.0, 0.0, 0.0, 0.0, 0.0, 0.0, 1.6776152926461787E9, 0.0, 2023-02-28 12:14:52.646
113.0, 27238.86397348213, -4218.422379305646, 16410.047281986153, -3153.8311426438268, 15316.93521939936, 7836.387495563924, -187500.02235174447, -187500.02235174447, -0.182, -0.772, -0.634, 192.0, 0.0, 0.0, 0.0, 0.0, 0.0, 0.0, 0.0, 0.0, 0.0, 1.6776152926510935E9, 0.0, 2023-02-28 12:14:52.651
114.0, 27139.890449034032, -4215.471949037546, 15938.492529212539, -3141.9623663380585, 15074.5081990371, 7568.54654175598, -187500.02235174447, -187500.02235174447, -0.182, -0.772, -0.634, 192.0, 0.0, 0.0, 0.0, 0.0, 0.0, 0.0, 0.0, 0.0, 0.0, 1.677615292655131E9, 0.0, 2023-02-28 12:14:52.655
115.0, 27025.650683122956, -4218.198861861094, 15228.757587523174, -3139.101343047779, 14700.362348599714, 7321.11273063573, -187500.02235174447, -187500.02235174447, -0.182, -0.772, -0.634, 192.0, 0.0, 0.0, 0.0, 0.0, 0.0, 0.0, 0.0, 0.0, 0.0, 1.6776152926580658E9, 0.0, 2023-02-28 12:14:52.658
116.0, 27109.290910874715, -4221.64103050721, 15594.2309611119, -3149.8972356196923, 14885.546551411933, 7551.1345328252955, -187500.02235174447, -187500.02235174447, -0.182, -0.772, -0.634, 192.0, 0.0, 0.0, 0.0, 0.0, 0.0, 0.0, 0.0, 0.0, 0.0, 1.677615292661088E9, 0.0, 2023-02-28 12:14:52.661
117.0, 27226.90579019854, -4225.3290683423365, 16367.735429732256, -3155.8875031337147, 15291.431878975854, 7834.845225196508, -187500.02235174447, -187500.02235174447, -0.182, -0.772, -0.634, 192.0, 0.0, 0.0, 0.0, 0.0, 0.0, 0.0, 0.0, 0.0, 0.0, 1.677615292665051E9, 0.0, 2023-02-28 12:14:52.665
118.0, 27152.56388814019, -4226.245489865004, 16087.355147284885, -3147.237378029511, 15151.509958685632, 7630.080894241441, -187500.02235174447, -187500.02235174447, -0.184, -0.768, -0.63, 192.0, 250.0, 64.0, 232.0, 0.0, 236.0, 80.0, 0.0, 0.0, 0.0, 1.677615292669074E9, 0.0, 2023-02-28 12:14:52.669
119.0, 27021.940293543375, -4227.005449176485, 15289.554332441608, -3140.978889582025, 14733.666447838123, 7323.392608570172, -187500.02235174447, -187500.02235174447, -0.184, -0.768, -0.63, 192.0, 0.0, 0.0, 0.0, 0.0, 0.0, 0.0, 0.0, 0.0, 0.0, 1.6776152926740859E9, 0.0, 2023-02-28 12:14:52.674
120.0, 27072.54464299019, -4229.710010255577, 15459.96403216887, -3149.8301803863264, 14817.21726861206, 7478.871343001288, -187500.02235174447, -187500.02235174447, -0.184, -0.768, -0.63, 192.0, 0.0, 0.0, 0.0, 0.0, 0.0, 0.0, 0.0, 0.0, 0.0, 1.6776152926781008E9, 0.0, 2023-02-28 12:14:52.678
121.0, 27206.14101959956, -4232.436923079124, 16285.570417114546, -3157.7650496679607, 15249.432951144332, 7809.163070817361, -187500.02235174447, -187500.02235174447, -0.184, -0.768, -0.63, 192.0, 0.0, 0.0, 0.0, 0.0, 0.0, 0.0, 0.0, 0.0, 0.0, 1.6776152926820965E9, 0.0, 2023-02-28 12:14:52.682
122.0, 27175.049743062227, -4228.927699199641, 16217.285837803583, -3149.1819797971225, 15221.381511852922, 7691.302322304527, -187500.02235174447, -187500.02235174447, -0.184, -0.768, -0.63, 192.0, 0.0, 0.0, 0.0, 0.0, 0.0, 0.0, 0.0, 0.0, 0.0, 1.6776152926850967E9, 0.0, 2023-02-28 12:14:52.685
123.0, 27022.722604599312, -4231.207577134082, 15388.90783654545, -3141.202407026578, 14785.611901952256, 7351.7346205395015, -187500.02235174447, -187500.02235174447, -0.184, -0.768, -0.63, 192.0, 0.0, 0.0, 0.0, 0.0, 0.0, 0.0, 0.0, 0.0, 0.0, 1.6776152926891594E9, 0.0, 2023-02-28 12:14:52.689
124.0, 27007.67988058089, -4239.880053982742, 15346.908908713927, -3148.600834441285, 14755.369991704225, 7423.37196151876, -187500.02235174447, -187500.02235174447, -0.184, -0.768, -0.63, 192.0, 0.0, 0.0, 0.0, 0.0, 0.0, 0.0, 0.0, 0.0, 0.0, 1.6776152926931183E9, 0.0, 2023-02-28 12:14:52.693
125.0, 27133.251980930803, -4248.306661642392, 16166.748543590134, -3160.134334580223, 15182.981214878704, 7774.406108189358, -187500.02235174447, -187500.02235174447, -0.184, -0.768, -0.63, 192.0, 0.0, 0.0, 0.0, 0.0, 0.0, 0.0, 0.0, 0.0, 0.0, 1.677615292697102E9, 0.0, 2023-02-28 12:14:52.697
126.0, 27131.97793149685, -4250.094801198817, 16318.963923330775, -3155.485171733519, 15268.968375798271, 7749.327450910503, -187500.02235174447, -187500.02235174447, -0.184, -0.768, -0.63, 192.0, 0.0, 0.0, 0.0, 0.0, 0.0, 0.0, 0.0, 0.0, 0.0, 1.6776152927020793E9, 0.0, 2023-02-28 12:14:52.702
127.0, 26970.06189466261, -4253.671080311666, 15514.859916551104, -3145.359831495265, 14849.962574239085, 7394.582914660325, -187500.02235174447, -187500.02235174447, -0.184, -0.768, -0.63, 192.0, 0.0, 0.0, 0.0, 0.0, 0.0, 0.0, 0.0, 0.0, 0.0, 1.6776152927061117E9, 0.0, 2023-02-28 12:14:52.706
128.0, 26926.565399952582, -4259.035498980939, 15265.369744940966, -3149.4502007305864, 14712.00760746093, 7375.360414428761, -187500.02235174447, -187500.02235174447, -0.184, -0.768, -0.63, 192.0, 0.0, 0.0, 0.0, 0.0, 0.0, 0.0, 0.0, 0.0, 0.0, 1.6776152927100747E9, 0.0, 2023-02-28 12:14:52.710
129.0, 27055.646724181977, -4262.812943793886, 16030.201736712665, -3161.6095497142733, 15107.946408742238, 7724.9416977097635, -187500.02235174447, -187500.02235174447, -0.184, -0.772, -0.624, 192.0, 250.0, 64.0, 231.0, 224.0, 236.0, 128.0, 0.0, 0.0, 0.0, 1.6776152927130992E9, 0.0, 2023-02-28 12:14:52.713
130.0, 27087.095628630595, -4263.751717061009, 16390.467153843303, -3159.664947946662, 15300.350225013523, 7788.443003707291, -187500.02235174447, -187500.02235174447, -0.184, -0.772, -0.624, 192.0, 0.0, 0.0, 0.0, 0.0, 0.0, 0.0, 0.0, 0.0, 0.0, 1.6776152927171175E9, 0.0, 2023-02-28 12:14:52.717
131.0, 26938.43417625835, -4265.137525217238, 15663.81194160127, -3149.1819797971225, 14921.868136151808, 7442.147426861218, -187500.02235174447, -187500.02235174447, -0.184, -0.772, -0.624, 192.0, 0.0, 0.0, 0.0, 0.0, 0.0, 0.0, 0.0, 0.0, 0.0, 1.6776152927211475E9, 0.0, 2023-02-28 12:14:52.721
132.0, 26863.30996314406, -4272.133621231749, 15219.213392640757, -3151.752430409483, 14679.686984978556, 7332.802692985856, -187500.02235174447, -187500.02235174447, -0.184, -0.772, -0.624, 192.0, 0.0, 0.0, 0.0, 0.0, 0.0, 0.0, 0.0, 0.0, 0.0, 1.6776152927251356E9, 0.0, 2023-02-28 12:14:52.725
133.0, 26977.773246499688, -4277.028653267462, 15876.064106948867, -3163.5765032263403, 15015.29842797499, 7656.902987587809, -187500.02235174447, -187500.02235174447, -0.184, -0.772, -0.624, 192.0, 0.0, 0.0, 0.0, 0.0, 0.0, 0.0, 0.0, 0.0, 0.0, 1.6776152927301643E9, 0.0, 2023-02-28 12:14:52.730
134.0, 27047.465985711337, -4276.603970122811, 16422.00546526974, -3163.308282292877, 15307.033396605659, 7815.578021476033, -187500.02235174447, -187500.02235174447, -0.184, -0.772, -0.624, 192.0, 0.0, 0.0, 0.0, 0.0, 0.0, 0.0, 0.0, 0.0, 0.0, 1.6776152927341483E9, 0.0, 2023-02-28 12:14:52.734
135.0, 26930.32049302107, -4273.251208454515, 15818.329551020808, -3150.500732719986, 14998.668730100242, 7504.039407257964, -187500.02235174447, -187500.02235174447, -0.184, -0.772, -0.624, 192.0, 0.0, 0.0, 0.0, 0.0, 0.0, 0.0, 0.0, 0.0, 0.0, 1.6776152927381835E9, 0.0, 2023-02-28 12:14:52.738
136.0, 26838.946561687775, -4275.642845111232, 15208.551610535576, -3149.874883875237, 14676.557740754813, 7313.088454376275, -187500.02235174447, -187500.02235174447, -0.184, -0.772, -0.624, 192.0, 0.0, 0.0, 0.0, 0.0, 0.0, 0.0, 0.0, 0.0, 0.0, 1.677615292741204E9, 0.0, 2023-02-28 12:14:52.741
137.0, 26931.035748843642, -4280.403766680213, 15720.63007600666, -3161.7883636699157, 14937.916688670719, 7593.625199034835, -187500.02235174447, -187500.02235174447, -0.184, -0.772, -0.624, 192.0, 0.0, 0.0, 0.0, 0.0, 0.0, 0.0, 0.0, 0.0, 0.0, 1.6776152927451253E9, 0.0, 2023-02-28 12:14:52.745
138.0, 27035.172526260918, -4280.18024923566, 16411.746014564756, -3164.62703521574, 15303.971207615283, 7828.474978026746, -187500.02235174447, -187500.02235174447, -0.184, -0.772, -0.624, 192.0, 0.0, 0.0, 0.0, 0.0, 0.0, 0.0, 0.0, 0.0, 0.0, 1.6776152927491407E9, 0.0, 2023-02-28 12:14:52.749
139.0, 26942.412786771394, -4278.2803509569585, 15973.920044174201, -3153.7640874104604, 15080.520818295578, 7572.100469124373, -187500.02235174447, -187500.02235174447, -0.186, -0.766, -0.62, 192.0, 250.0, 48.0, 232.0, 16.0, 236.0, 160.0, 0.0, 0.0, 0.0, 1.6776152927531953E9, 0.0, 2023-02-28 12:14:52.753
140.0, 26818.941750400278, -4283.242438226037, 15239.978163239737, -3150.1878082976114, 14691.891037451154, 7313.915468921122, -187500.02235174447, -187500.02235174447, -0.186, -0.766, -0.62, 192.0, 0.0, 0.0, 0.0, 0.0, 0.0, 0.0, 0.0, 0.0, 0.0, 1.6776152927571182E9, 0.0, 2023-02-28 12:14:52.757
141.0, 26892.36723093596, -4286.841069083342, 15566.112466587123, -3160.983700869525, 14855.774027797464, 7529.073361047907, -187500.02235174447, -187500.02235174447, -0.186, -0.766, -0.62, 192.0, 0.0, 0.0, 0.0, 0.0, 0.0, 0.0, 0.0, 0.0, 0.0, 1.677615292762153E9, 0.0, 2023-02-28 12:14:52.762
142.0, 27018.140496985972, -4286.617551638788, 16355.75489470421, -3167.2868928059215, 15268.856617075995, 7827.044466381606, -187500.02235174447, -187500.02235174447, -0.186, -0.766, -0.62, 192.0, 0.0, 0.0, 0.0, 0.0, 0.0, 0.0, 0.0, 0.0, 0.0, 1.677615292766188E9, 0.0, 2023-02-28 12:14:52.766
143.0, 26951.129967108962, -4285.097633015827, 16117.082967410443, -3158.167381068156, 15149.90063308485, 7643.626051381356, -187500.02235174447, -187500.02235174447, -0.186, -0.766, -0.62, 192.0, 0.0, 0.0, 0.0, 0.0, 0.0, 0.0, 0.0, 0.0, 0.0, 1.6776152927692215E9, 0.0, 2023-02-28 12:14:52.769
144.0, 26819.254674822652, -4285.65642662721, 15306.832230905562, -3151.841837387304, 14724.34577040026, 7334.032038930898, -187500.02235174447, -187500.02235174447, -0.186, -0.766, -0.62, 192.0, 0.0, 0.0, 0.0, 0.0, 0.0, 0.0, 0.0, 0.0, 0.0, 1.6776152927732253E9, 0.0, 2023-02-28 12:14:52.773
145.0, 26857.65497179687, -4290.439699940646, 15436.852328402083, -3160.7378316805166, 14784.583721707311, 7475.093898188341, -187500.02235174447, -187500.02235174447, -0.186, -0.766, -0.62, 192.0, 0.0, 0.0, 0.0, 0.0, 0.0, 0.0, 0.0, 0.0, 0.0, 1.677615292777174E9, 0.0, 2023-02-28 12:14:52.777
146.0, 26988.367973371503, -4294.37360696478, 16268.113704694952, -3169.72323295155, 15215.324189105535, 7809.833623151019, -187500.02235174447, -187500.02235174447, -0.186, -0.766, -0.62, 192.0, 0.0, 0.0, 0.0, 0.0, 0.0, 0.0, 0.0, 0.0, 0.0, 1.6776152927811823E9, 0.0, 2023-02-28 12:14:52.781
147.0, 26968.452569061825, -4287.712787117099, 16243.392675327383, -3161.1178113362566, 15209.713901247253, 7710.167194624805, -187500.02235174447, -187500.02235174447, -0.186, -0.766, -0.62, 192.0, 0.0, 0.0, 0.0, 0.0, 0.0, 0.0, 0.0, 0.0, 0.0, 1.6776152927852356E9, 0.0, 2023-02-28 12:14:52.785
148.0, 26833.895067440877, -4283.018920781484, 15414.075900802125, -3150.7018984200836, 14779.822800138332, 7364.966853257043, -187500.02235174447, -187500.02235174447, -0.186, -0.766, -0.62, 192.0, 0.0, 0.0, 0.0, 0.0, 0.0, 0.0, 0.0, 0.0, 0.0, 1.6776152927901824E9, 0.0, 2023-02-28 12:14:52.790
149.0, 26840.399425077372, -4284.89646731573, 15328.021684649193, -3156.848628145293, 14733.465282138024, 7413.000752091498, -187500.02235174447, -187500.02235174447, -0.184, -0.766, -0.624, 192.0, 250.0, 64.0, 232.0, 16.0, 236.0, 128.0, 0.0, 0.0, 0.0, 1.6776152927941744E9, 0.0, 2023-02-28 12:14:52.794
150.0, 26979.29316512265, -4287.556324905911, 16141.736941544646, -3167.488058506019, 15157.723743644208, 7766.314776696537, -187500.02235174447, -187500.02235174447, -0.184, -0.766, -0.624, 192.0, 0.0, 0.0, 0.0, 0.0, 0.0, 0.0, 0.0, 0.0, 0.0, 1.6776152927971883E9, 0.0, 2023-02-28 12:14:52.797
151.0, 26985.43989484786, -4288.539801661945, 16339.147548573917, -3164.224703815544, 15262.285204206135, 7760.212750460238, -187500.02235174447, -187500.02235174447, -0.184, -0.766, -0.624, 192.0, 0.0, 0.0, 0.0, 0.0, 0.0, 0.0, 0.0, 0.0, 0.0, 1.6776152928012438E9, 0.0, 2023-02-28 12:14:52.801
152.0, 26839.93003844381, -4289.27740922897, 15546.957021588925, -3154.9710816110473, 14846.453350359601, 7405.89289735471, -187500.02235174447, -187500.02235174447, -0.184, -0.766, -0.624, 192.0, 0.0, 0.0, 0.0, 0.0, 0.0, 0.0, 0.0, 0.0, 0.0, 1.6776152928052504E9, 0.0, 2023-02-28 12:14:52.805
153.0, 26812.102116596954, -4289.7244441180765, 15252.741009323718, -3157.429773501131, 14687.979482171475, 7371.739431827001, -187500.02235174447, -187500.02235174447, -0.184, -0.766, -0.624, 192.0, 0.0, 0.0, 0.0, 0.0, 0.0, 0.0, 0.0, 0.0, 0.0, 1.6776152928092535E9, 0.0, 2023-02-28 12:14:52.809
154.0, 26951.308781064607, -4291.490231930045, 15998.037576441477, -3167.622168972751, 15074.619957759376, 7720.046665674051, -187500.02235174447, -187500.02235174447, -0.184, -0.766, -0.624, 192.0, 0.0, 0.0, 0.0, 0.0, 0.0, 0.0, 0.0, 0.0, 0.0, 1.6776152928132496E9, 0.0, 2023-02-28 12:14:52.813
155.0, 26990.022002461195, -4292.160784263705, 16399.7207760478, -3165.498753249497, 15286.425088217866, 7807.620800449944, -187500.02235174447, -187500.02235174447, -0.184, -0.766, -0.624, 192.0, 0.0, 0.0, 0.0, 0.0, 0.0, 0.0, 0.0, 0.0, 0.0, 1.6776152928182456E9, 0.0, 2023-02-28 12:14:52.818
156.0, 26861.343009631993, -4288.360987706303, 15695.372604772165, -3153.942901366103, 14922.203412318637, 7471.674081286679, -187500.02235174447, -187500.02235174447, -0.184, -0.766, -0.624, 192.0, 0.0, 0.0, 0.0, 0.0, 0.0, 0.0, 0.0, 0.0, 0.0, 1.677615292821286E9, 0.0, 2023-02-28 12:14:52.821
157.0, 26802.44616299226, -4289.523278417978, 15214.117194904948, -3155.105192077779, 14664.912481893598, 7347.26427164844, -187500.02235174447, -187500.02235174447, -0.184, -0.766, -0.624, 192.0, 0.0, 0.0, 0.0, 0.0, 0.0, 0.0, 0.0, 0.0, 0.0, 1.6776152928252575E9, 0.0, 2023-02-28 12:14:52.825
158.0, 26916.17183878086, -4295.915877332196, 15842.983525155012, -3167.5104102504743, 14988.833962539908, 7663.139124290839, -187500.02235174447, -187500.02235174447, -0.184, -0.766, -0.624, 192.0, 0.0, 0.0, 0.0, 0.0, 0.0, 0.0, 0.0, 0.0, 0.0, 1.6776152928292284E9, 0.0, 2023-02-28 12:14:52.829
159.0, 26993.44181936286, -4296.139394776749, 16423.748901337254, -3168.225666073044, 15297.176277300869, 7836.275736841648, -187500.02235174447, -187500.02235174447, -0.184, -0.768, -0.624, 192.0, 250.0, 64.0, 232.0, 0.0, 236.0, 128.0, 0.0, 0.0, 0.0, 1.6776152928332806E9, 0.0, 2023-02-28 12:14:52.833
160.0, 26887.114570988964, -4292.026673796973, 15851.90187119268, -3156.2227793005445, 15005.329549947925, 7533.25313726105, -187500.02235174447, -187500.02235174447, -0.184, -0.768, -0.624, 192.0, 0.0, 0.0, 0.0, 0.0, 0.0, 0.0, 0.0, 0.0, 0.0, 1.6776152928373084E9, 0.0, 2023-02-28 12:14:52.837
161.0, 26804.524875226605, -4290.573810407378, 15210.876191958929, -3153.7417356660053, 14670.120438351685, 7327.885309205689, -187500.02235174447, -187500.02235174447, -0.184, -0.768, -0.624, 192.0, 0.0, 0.0, 0.0, 0.0, 0.0, 0.0, 0.0, 0.0, 0.0, 1.6776152928412707E9, 0.0, 2023-02-28 12:14:52.841
162.0, 26899.94447230631, -4295.267676742992, 15687.750659912905, -3165.655215460684, 14913.95561861463, 7599.280190382027, -187500.02235174447, -187500.02235174447, -0.184, -0.768, -0.624, 192.0, 0.0, 0.0, 0.0, 0.0, 0.0, 0.0, 0.0, 0.0, 0.0, 1.6776152928462536E9, 0.0, 2023-02-28 12:14:52.846
163.0, 27008.372784659005, -4294.977104065073, 16403.38646213847, -3169.455012018086, 15292.661224920897, 7848.926824203351, -187500.02235174447, -187500.02235174447, -0.184, -0.768, -0.624, 192.0, 0.0, 0.0, 0.0, 0.0, 0.0, 0.0, 0.0, 0.0, 0.0, 1.6776152928493347E9, 0.0, 2023-02-28 12:14:52.849
164.0, 26916.216542269773, -4290.238534240548, 16005.033672455987, -3157.943863623603, 15092.635463790353, 7606.097472440895, -187500.02235174447, -187500.02235174447, -0.184, -0.768, -0.624, 192.0, 0.0, 0.0, 0.0, 0.0, 0.0, 0.0, 0.0, 0.0, 0.0, 1.6776152928523223E9, 0.0, 2023-02-28 12:14:52.852
165.0, 26802.826142648002, -4289.23270574006, 15250.036448244626, -3152.6688519321506, 14698.305988109827, 7332.847396474767, -187500.02235174447, -187500.02235174447, -0.184, -0.768, -0.624, 192.0, 0.0, 0.0, 0.0, 0.0, 0.0, 0.0, 0.0, 0.0, 0.0, 1.677615292857286E9, 0.0, 2023-02-28 12:14:52.857
166.0, 26879.760847063168, -4290.75262436302, 15538.351599973632, -3162.905950892681, 14841.535966579435, 7536.091808806874, -187500.02235174447, -187500.02235174447, -0.184, -0.768, -0.624, 192.0, 0.0, 0.0, 0.0, 0.0, 0.0, 0.0, 0.0, 0.0, 0.0, 1.677615292861241E9, 0.0, 2023-02-28 12:14:52.861
167.0, 26999.119162454506, -4294.552420920422, 16341.18155731935, -3172.450145775097, 15256.138474480926, 7843.137722389427, -187500.02235174447, -187500.02235174447, -0.184, -0.768, -0.624, 192.0, 0.0, 0.0, 0.0, 0.0, 0.0, 0.0, 0.0, 0.0, 0.0, 1.6776152928652425E9, 0.0, 2023-02-28 12:14:52.865
168.0, 26941.585772226546, -4292.786633108453, 16147.727209058668, -3164.135296837723, 15153.94629883126, 7674.829086640965, -187500.02235174447, -187500.02235174447, -0.184, -0.768, -0.624, 192.0, 0.0, 0.0, 0.0, 0.0, 0.0, 0.0, 0.0, 0.0, 0.0, 1.6776152928693776E9, 0.0, 2023-02-28 12:14:52.869
169.0, 26812.996186375167, -4290.551458662922, 15330.525080028186, -3155.8651513892596, 14726.022151234407, 7353.902739751666, -187500.02235174447, -187500.02235174447, -0.188, -0.774, -0.624, 192.0, 250.0, 32.0, 231.0, 208.0, 236.0, 128.0, 0.0, 0.0, 0.0, 1.67761529287332E9, 0.0, 2023-02-28 12:14:52.873
170.0, 26858.705503786266, -4290.126775518272, 15412.511278690254, -3163.1294683372344, 14764.489503441991, 7475.272712143983, -187500.02235174447, -187500.02235174447, -0.188, -0.774, -0.624, 192.0, 0.0, 0.0, 0.0, 0.0, 0.0, 0.0, 0.0, 0.0, 0.0, 1.6776152928783224E9, 0.0, 2023-02-28 12:14:52.878
171.0, 26991.43016236188, -4291.80315635242, 16242.11862589343, -3171.6678347191614, 15197.15222086337, 7813.745178430699, -187500.02235174447, -187500.02235174447, -0.188, -0.774, -0.624, 192.0, 0.0, 0.0, 0.0, 0.0, 0.0, 0.0, 0.0, 0.0, 0.0, 1.6776152928812892E9, 0.0, 2023-02-28 12:14:52.881
172.0, 26969.257231862215, -4287.824545839375, 16266.146751182885, -3163.91177939317, 15216.709997261763, 7733.345953624958, -187500.02235174447, -187500.02235174447, -0.188, -0.774, -0.624, 192.0, 0.0, 0.0, 0.0, 0.0, 0.0, 0.0, 0.0, 0.0, 0.0, 1.6776152928853028E9, 0.0, 2023-02-28 12:14:52.885
173.0, 26840.77940473311, -4282.862458570296, 15444.38486628352, -3153.3617560102653, 14788.584683964811, 7388.190315746107, -187500.02235174447, -187500.02235174447, -0.188, -0.774, -0.624, 192.0, 0.0, 0.0, 0.0, 0.0, 0.0, 0.0, 0.0, 0.0, 0.0, 1.6776152928892863E9, 0.0, 2023-02-28 12:14:52.889
174.0, 26838.611285520947, -4285.008226038007, 15313.627161219974, -3158.949692124092, 14714.511002839925, 7422.075560340352, -187500.02235174447, -187500.02235174447, -0.188, -0.774, -0.624, 192.0, 0.0, 0.0, 0.0, 0.0, 0.0, 0.0, 0.0, 0.0, 0.0, 1.6776152928932912E9, 0.0, 2023-02-28 12:14:52.893
175.0, 26971.380647585473, -4289.769147606987, 16115.607752276392, -3169.0526806178905, 15134.455577666233, 7770.829829076509, -187500.02235174447, -187500.02235174447, -0.188, -0.774, -0.624, 192.0, 0.0, 0.0, 0.0, 0.0, 0.0, 0.0, 0.0, 0.0, 0.0, 1.677615292897294E9, 0.0, 2023-02-28 12:14:52.897
176.0, 26994.04531646315, -4289.053891784417, 16357.721848216279, -3164.4705730045525, 15267.940195553327, 7781.402204203869, -187500.02235174447, -187500.02235174447, -0.188, -0.774, -0.624, 192.0, 0.0, 0.0, 0.0, 0.0, 0.0, 0.0, 0.0, 0.0, 0.0, 1.6776152929013097E9, 0.0, 2023-02-28 12:14:52.901
177.0, 26864.293439900095, -4286.215220238593, 15579.724678960405, -3153.495866476997, 14863.641841845732, 7430.0998365998075, -187500.02235174447, -187500.02235174447, -0.188, -0.774, -0.624, 192.0, 0.0, 0.0, 0.0, 0.0, 0.0, 0.0, 0.0, 0.0, 0.0, 1.6776152929053288E9, 0.0, 2023-02-28 12:14:52.905
178.0, 26824.015596391633, -4289.478574929068, 15243.576794097042, -3157.206256056578, 14683.978519913975, 7373.79579231689, -187500.02235174447, -187500.02235174447, -0.188, -0.774, -0.624, 192.0, 0.0, 0.0, 0.0, 0.0, 0.0, 0.0, 0.0, 0.0, 0.0, 1.6776152929084141E9, 0.0, 2023-02-28 12:14:52.908
179.0, 26960.294182335638, -4290.6632173851995, 15967.214520837608, -3169.2761980624437, 15060.895986663818, 7713.274087104093, -187500.02235174447, -187500.02235174447, -0.184, -0.77, -0.624, 192.0, 250.0, 64.0, 231.0, 240.0, 236.0, 128.0, 0.0, 0.0, 0.0, 1.6776152929133663E9, 0.0, 2023-02-28 12:14:52.913
180.0, 27021.49325865427, -4288.159822006205, 16410.986055253274, -3168.0021486284913, 15297.93623661235, 7820.204832578282, -187500.02235174447, -187500.02235174447, -0.184, -0.77, -0.624, 192.0, 0.0, 0.0, 0.0, 0.0, 0.0, 0.0, 0.0, 0.0, 0.0, 1.6776152929173567E9, 0.0, 2023-02-28 12:14:52.917
181.0, 26886.533425633126, -4289.299760973426, 15733.616439535195, -3158.2344363015222, 14944.756322474042, 7486.8062122829215, -187500.02235174447, -187500.02235174447, -0.184, -0.77, -0.624, 192.0, 0.0, 0.0, 0.0, 0.0, 0.0, 0.0, 0.0, 0.0, 0.0, 1.6776152929214013E9, 0.0, 2023-02-28 12:14:52.921
182.0, 26818.517067255627, -4289.523278417978, 15214.854802471973, -3157.6756426901393, 14668.24289181744, 7342.413943101638, -187500.02235174447, -187500.02235174447, -0.184, -0.77, -0.624, 192.0, 0.0, 0.0, 0.0, 0.0, 0.0, 0.0, 0.0, 0.0, 0.0, 1.6776152929254205E9, 0.0, 2023-02-28 12:14:52.925
183.0, 26933.919123878375, -4291.110252274305, 15809.74648114997, -3168.873866662248, 14971.779581520508, 7649.973946806664, -187500.02235174447, -187500.02235174447, -0.184, -0.77, -0.624, 192.0, 0.0, 0.0, 0.0, 0.0, 0.0, 0.0, 0.0, 0.0, 0.0, 1.6776152929293983E9, 0.0, 2023-02-28 12:14:52.929
184.0, 27023.907247055442, -4291.80315635242, 16423.994770526264, -3171.086689363324, 15295.589303444542, 7840.723733988254, -187500.02235174447, -187500.02235174447, -0.184, -0.77, -0.624, 192.0, 0.0, 0.0, 0.0, 0.0, 0.0, 0.0, 0.0, 0.0, 0.0, 1.67761529293334E9, 0.0, 2023-02-28 12:14:52.933
185.0, 26915.94832133631, -4291.110252274305, 15887.642310576715, -3160.0896310913126, 15018.226506498637, 7550.486332236092, -187500.02235174447, -187500.02235174447, -0.184, -0.77, -0.624, 192.0, 0.0, 0.0, 0.0, 0.0, 0.0, 0.0, 0.0, 0.0, 0.0, 1.677615292936372E9, 0.0, 2023-02-28 12:14:52.936
186.0, 26812.504447997148, -4294.328903475869, 15221.649732786385, -3158.525008979441, 14665.292461549338, 7329.986373184487, -187500.02235174447, -187500.02235174447, -0.184, -0.77, -0.624, 192.0, 0.0, 0.0, 0.0, 0.0, 0.0, 0.0, 0.0, 0.0, 0.0, 1.677615292940395E9, 0.0, 2023-02-28 12:14:52.940
187.0, 26916.060080058585, -4293.568944164389, 15657.464046175963, -3168.6950527066056, 14888.854609591319, 7587.031434420519, -187500.02235174447, -187500.02235174447, -0.184, -0.77, -0.624, 192.0, 0.0, 0.0, 0.0, 0.0, 0.0, 0.0, 0.0, 0.0, 0.0, 1.677615292945428E9, 0.0, 2023-02-28 12:14:52.945
188.0, 27024.73426160029, -4293.859516842308, 16398.223209169293, -3173.7018434645947, 15278.221998002768, 7852.570158549566, -187500.02235174447, -187500.02235174447, -0.184, -0.77, -0.624, 192.0, 0.0, 0.0, 0.0, 0.0, 0.0, 0.0, 0.0, 0.0, 0.0, 1.6776152929494183E9, 0.0, 2023-02-28 12:14:52.949
189.0, 26948.47010951878, -4290.6632173851995, 16044.417446186239, -3163.934131137625, 15099.743318527142, 7621.967211004164, -187500.02235174447, -187500.02235174447, -0.19, -0.768, -0.628, 192.0, 250.0, 16.0, 232.0, 0.0, 236.0, 96.0, 0.0, 0.0, 0.0, 1.677615292953359E9, 0.0, 2023-02-28 12:14:52.953
190.0, 26836.197297119776, -4285.209391738104, 15272.812875844584, -3156.982738612025, 14698.23893287646, 7336.602489543258, -187500.02235174447, -187500.02235174447, -0.19, -0.768, -0.628, 192.0, 0.0, 0.0, 0.0, 0.0, 0.0, 0.0, 0.0, 0.0, 0.0, 1.677615292957442E9, 0.0, 2023-02-28 12:14:52.957
191.0, 26899.251568228196, -4284.829412082364, 15514.614047362096, -3165.901084649692, 14821.620562269756, 7523.8430528453655, -187500.02235174447, -187500.02235174447, -0.19, -0.768, -0.628, 192.0, 0.0, 0.0, 0.0, 0.0, 0.0, 0.0, 0.0, 0.0, 0.0, 1.6776152929614663E9, 0.0, 2023-02-28 12:14:52.961
192.0, 27028.35524420205, -4287.556324905911, 16326.80938563459, -3173.7688986979606, 15244.91789876436, 7842.377763077947, -187500.02235174447, -187500.02235174447, -0.19, -0.768, -0.628, 192.0, 0.0, 0.0, 0.0, 0.0, 0.0, 0.0, 0.0, 0.0, 0.0, 1.6776152929664533E9, 0.0, 2023-02-28 12:14:52.966
193.0, 26975.80629298762, -4287.936304561652, 16178.550264662537, -3164.4258695156423, 15173.86170314094, 7692.822240927487, -187500.02235174447, -187500.02235174447, -0.19, -0.768, -0.628, 192.0, 0.0, 0.0, 0.0, 0.0, 0.0, 0.0, 0.0, 0.0, 0.0, 1.6776152929694777E9, 0.0, 2023-02-28 12:14:52.969
194.0, 26854.011637450654, -4284.5611911489, 15355.067295440114, -3155.8651513892596, 14746.988087533486, 7362.396402644683, -187500.02235174447, -187500.02235174447, -0.19, -0.768, -0.628, 192.0, 0.0, 0.0, 0.0, 0.0, 0.0, 0.0, 0.0, 0.0, 0.0, 1.6776152929744391E9, 0.0, 2023-02-28 12:14:52.974
195.0, 26878.486797629215, -4287.668083628188, 15393.355833692056, -3163.4870962485193, 14763.081343541306, 7463.314528860394, -187500.02235174447, -187500.02235174447, -0.19, -0.768, -0.628, 192.0, 0.0, 0.0, 0.0, 0.0, 0.0, 0.0, 0.0, 0.0, 0.0, 1.6776152929774299E9, 0.0, 2023-02-28 12:14:52.977
196.0, 27006.785810802678, -4291.378473207769, 16221.152689594352, -3174.0594713758796, 15193.330072561512, 7808.02313185014, -187500.02235174447, -187500.02235174447, -0.19, -0.768, -0.628, 192.0, 0.0, 0.0, 0.0, 0.0, 0.0, 0.0, 0.0, 0.0, 0.0, 1.6776152929814494E9, 0.0, 2023-02-28 12:14:52.981
197.0, 26995.34171764156, -4290.573810407378, 16292.074774751041, -3168.3374247953207, 15233.25028815869, 7748.366325898925, -187500.02235174447, -187500.02235174447, -0.19, -0.768, -0.628, 192.0, 0.0, 0.0, 0.0, 0.0, 0.0, 0.0, 0.0, 0.0, 0.0, 1.6776152929844265E9, 0.0, 2023-02-28 12:14:52.984
198.0, 26866.483910856714, -4286.863420827797, 15474.894997465015, -3157.787401412416, 14806.756652206977, 7401.288437996917, -187500.02235174447, -187500.02235174447, -0.19, -0.768, -0.628, 192.0, 0.0, 0.0, 0.0, 0.0, 0.0, 0.0, 0.0, 0.0, 0.0, 1.6776152929884841E9, 0.0, 2023-02-28 12:14:52.988
199.0, 26861.566527076546, -4285.879944071763, 15298.830306390562, -3161.7436601810055, 14710.420633604603, 7416.934659115632, -187500.02235174447, -187500.02235174447, -0.184, -0.766, -0.628, 192.0, 250.0, 64.0, 232.0, 16.0, 236.0, 96.0, 0.0, 0.0, 0.0, 1.6776152929924247E9, 0.0, 2023-02-28 12:14:52.992
200.0, 26988.47973209378, -4290.283237729459, 16086.505780995582, -3172.696014964106, 15121.200993204237, 7766.515942396634, -187500.02235174447, -187500.02235174447, -0.184, -0.766, -0.628, 192.0, 0.0, 0.0, 0.0, 0.0, 0.0, 0.0, 0.0, 0.0, 0.0, 1.677615292997435E9, 0.0, 2023-02-28 12:14:52.997
201.0, 27019.258084208737, -4287.355159205814, 16372.183426878863, -3168.9185701511587, 15275.584492157042, 7800.892925368897, -187500.02235174447, -187500.02235174447, -0.184, -0.766, -0.628, 192.0, 0.0, 0.0, 0.0, 0.0, 0.0, 0.0, 0.0, 0.0, 0.0, 1.6776152930014625E9, 0.0, 2023-02-28 12:14:53.001
202.0, 26887.963937278266, -4283.5106591595, 15611.665321787039, -3158.010918856969, 14879.355118197815, 7452.8762641997655, -187500.02235174447, -187500.02235174447, -0.184, -0.766, -0.628, 192.0, 0.0, 0.0, 0.0, 0.0, 0.0, 0.0, 0.0, 0.0, 0.0, 1.6776152930054593E9, 0.0, 2023-02-28 12:14:53.005
203.0, 26843.46161406775, -4288.204525495115, 15236.49129110471, -3161.564846225363, 14677.675327977578, 7376.388594673705, -187500.02235174447, -187500.02235174447, -0.184, -0.766, -0.628, 192.0, 0.0, 0.0, 0.0, 0.0, 0.0, 0.0, 0.0, 0.0, 0.0, 1.6776152930096037E9, 0.0, 2023-02-28 12:14:53.009
204.0, 26963.222260859286, -4294.731234876065, 15936.212651278098, -3173.947712653603, 15039.572422453455, 7707.060302145518, -187500.02235174447, -187500.02235174447, -0.184, -0.766, -0.628, 192.0, 0.0, 0.0, 0.0, 0.0, 0.0, 0.0, 0.0, 0.0, 0.0, 1.6776152930125003E9, 0.0, 2023-02-28 12:14:53.012
205.0, 27022.163810987928, -4295.513545932001, 16418.76446232372, -3173.299512064399, 15292.750631898718, 7831.02307689465, -187500.02235174447, -187500.02235174447, -0.184, -0.766, -0.628, 192.0, 0.0, 0.0, 0.0, 0.0, 0.0, 0.0, 0.0, 0.0, 0.0, 1.6776152930164723E9, 0.0, 2023-02-28 12:14:53.016
206.0, 26904.437172941827, -4291.937266819152, 15767.322870173797, -3161.564846225363, 14954.188758634182, 7506.319285192405, -187500.02235174447, -187500.02235174447, -0.184, -0.766, -0.628, 192.0, 0.0, 0.0, 0.0, 0.0, 0.0, 0.0, 0.0, 0.0, 0.0, 1.677615293020518E9, 0.0, 2023-02-28 12:14:53.020
207.0, 26825.446108036773, -4292.920743575185, 15215.145375149892, -3160.8048869138825, 14663.727839437466, 7346.437257103594, -187500.02235174447, -187500.02235174447, -0.184, -0.766, -0.628, 192.0, 0.0, 0.0, 0.0, 0.0, 0.0, 0.0, 0.0, 0.0, 0.0, 1.6776152930254753E9, 0.0, 2023-02-28 12:14:53.025
208.0, 26940.155260581407, -4295.200621509626, 15780.085716257778, -3172.1595730971785, 14954.524034801012, 7643.536644403535, -187500.02235174447, -187500.02235174447, -0.184, -0.766, -0.628, 192.0, 0.0, 0.0, 0.0, 0.0, 0.0, 0.0, 0.0, 0.0, 0.0, 1.6776152930294788E9, 0.0, 2023-02-28 12:14:53.029
209.0, 27027.707043612845, -4298.732197133565, 16425.648799615956, -3175.0876516208236, 15292.638873176442, 7850.26792887067, -187500.02235174447, -187500.02235174447, -0.18, -0.764, -0.628, 192.0, 250.0, 96.0, 232.0, 32.0, 236.0, 96.0, 0.0, 0.0, 0.0, 1.6776152930334842E9, 0.0, 2023-02-28 12:14:53.033
210.0, 26921.670367916868, -4298.106348288817, 15927.406063962706, -3164.3811660267315, 15034.275059017547, 7570.781716201511, -187500.02235174447, -187500.02235174447, -0.18, -0.764, -0.628, 192.0, 0.0, 0.0, 0.0, 0.0, 0.0, 0.0, 0.0, 0.0, 0.0, 1.6776152930375395E9, 0.0, 2023-02-28 12:14:53.037
211.0, 26808.078802595, -4301.503813446023, 15236.535994593622, -3162.4142125146645, 14669.47223776248, 7330.679277262602, -187500.02235174447, -187500.02235174447, -0.18, -0.764, -0.628, 192.0, 0.0, 0.0, 0.0, 0.0, 0.0, 0.0, 0.0, 0.0, 0.0, 1.67761529304048E9, 0.0, 2023-02-28 12:14:53.040
212.0, 26896.524655404646, -4303.068435557894, 15630.32902840722, -3172.5172010084634, 14872.537836138945, 7572.234579591105, -187500.02235174447, -187500.02235174447, -0.18, -0.764, -0.628, 192.0, 0.0, 0.0, 0.0, 0.0, 0.0, 0.0, 0.0, 0.0, 0.0, 1.6776152930455468E9, 0.0, 2023-02-28 12:14:53.045
213.0, 27022.186162732385, -4301.682627401666, 16387.09204043055, -3177.613398744273, 15270.845922332517, 7851.541978304623, -187500.02235174447, -187500.02235174447, -0.18, -0.764, -0.628, 192.0, 0.0, 0.0, 0.0, 0.0, 0.0, 0.0, 0.0, 0.0, 0.0, 1.6776152930505843E9, 0.0, 2023-02-28 12:14:53.050
214.0, 26941.09403384853, -4303.426063469179, 16075.441667490206, -3168.493887006508, 15108.684016309264, 7638.105170500895, -187500.02235174447, -187500.02235174447, -0.18, -0.764, -0.628, 192.0, 0.0, 0.0, 0.0, 0.0, 0.0, 0.0, 0.0, 0.0, 0.0, 1.6776152930534828E9, 0.0, 2023-02-28 12:14:53.053
215.0, 26814.963139887233, -4303.13549079126, 15290.448402219821, -3161.631901458729, 14697.43427007607, 7340.111713422742, -187500.02235174447, -187500.02235174447, -0.18, -0.764, -0.628, 192.0, 0.0, 0.0, 0.0, 0.0, 0.0, 0.0, 0.0, 0.0, 0.0, 1.6776152930575228E9, 0.0, 2023-02-28 12:14:53.057
216.0, 26876.810416795066, -4302.531993690967, 15492.083488951146, -3169.745584696005, 14800.162887592662, 7504.285276446972, -187500.02235174447, -187500.02235174447, -0.18, -0.764, -0.628, 192.0, 0.0, 0.0, 0.0, 0.0, 0.0, 0.0, 0.0, 0.0, 0.0, 1.6776152930625043E9, 0.0, 2023-02-28 12:14:53.062
217.0, 27010.026813748696, -4305.191851281149, 16310.023225548653, -3177.8369161888263, 15232.736198036218, 7824.742236702709, -187500.02235174447, -187500.02235174447, -0.18, -0.764, -0.628, 192.0, 0.0, 0.0, 0.0, 0.0, 0.0, 0.0, 0.0, 0.0, 0.0, 1.6776152930665152E9, 0.0, 2023-02-28 12:14:53.066
218.0, 26967.782016728168, -4305.191851281149, 16205.707634175735, -3170.237323074022, 15186.468087013733, 7693.693958961244, -187500.02235174447, -187500.02235174447, -0.18, -0.764, -0.628, 192.0, 0.0, 0.0, 0.0, 0.0, 0.0, 0.0, 0.0, 0.0, 0.0, 1.677615293069536E9, 0.0, 2023-02-28 12:14:53.069
219.0, 26829.178849360807, -4303.247249513537, 15378.648385840463, -3161.1848665696225, 14755.638212637688, 7357.970757242532, -187500.02235174447, -187500.02235174447, -0.184, -0.766, -0.63, 192.0, 250.0, 64.0, 232.0, 16.0, 236.0, 80.0, 0.0, 0.0, 0.0, 1.6776152930725276E9, 0.0, 2023-02-28 12:14:53.072
220.0, 26846.859079224956, -4304.744816392043, 15370.42294388091, -3168.5832939843294, 14744.842320065776, 7444.226139095562, -187500.02235174447, -187500.02235174447, -0.184, -0.766, -0.63, 192.0, 0.0, 0.0, 0.0, 0.0, 0.0, 0.0, 0.0, 0.0, 0.0, 1.6776152930764956E9, 0.0, 2023-02-28 12:14:53.076
221.0, 26990.491389094757, -4305.169499536693, 16193.414174725316, -3177.658102233184, 15176.074525842016, 7791.795765375587, -187500.02235174447, -187500.02235174447, -0.184, -0.766, -0.63, 192.0, 0.0, 0.0, 0.0, 0.0, 0.0, 0.0, 0.0, 0.0, 0.0, 1.6776152930805857E9, 0.0, 2023-02-28 12:14:53.080
222.0, 26999.119162454506, -4302.621400668789, 16309.106804025985, -3171.421965530153, 15241.609840584975, 7745.617061330922, -187500.02235174447, -187500.02235174447, -0.184, -0.766, -0.63, 192.0, 0.0, 0.0, 0.0, 0.0, 0.0, 0.0, 0.0, 0.0, 0.0, 1.6776152930855987E9, 0.0, 2023-02-28 12:14:53.085
223.0, 26862.30413464357, -4300.296819245436, 15498.789012287738, -3161.318977036354, 14819.631257013234, 7392.683016381624, -187500.02235174447, -187500.02235174447, -0.184, -0.766, -0.63, 192.0, 0.0, 0.0, 0.0, 0.0, 0.0, 0.0, 0.0, 0.0, 0.0, 1.6776152930895593E9, 0.0, 2023-02-28 12:14:53.089
224.0, 26836.130241886407, -4302.688455902155, 15281.127724781958, -3165.8340294163263, 14701.52463931139, 7392.7947751039, -187500.02235174447, -187500.02235174447, -0.184, -0.766, -0.63, 192.0, 0.0, 0.0, 0.0, 0.0, 0.0, 0.0, 0.0, 0.0, 0.0, 1.6776152930935585E9, 0.0, 2023-02-28 12:14:53.093
225.0, 26964.988048671254, -4307.2705635154925, 16055.213338758153, -3177.211067344078, 15105.778289530075, 7743.158369440838, -187500.02235174447, -187500.02235174447, -0.184, -0.766, -0.63, 192.0, 0.0, 0.0, 0.0, 0.0, 0.0, 0.0, 0.0, 0.0, 0.0, 1.6776152930965235E9, 0.0, 2023-02-28 12:14:53.096
226.0, 27002.874255523, -4308.276392015981, 16382.62169153949, -3174.908837665181, 15281.999442815715, 7791.058157808561, -187500.02235174447, -187500.02235174447, -0.184, -0.766, -0.63, 192.0, 0.0, 0.0, 0.0, 0.0, 0.0, 0.0, 0.0, 0.0, 0.0, 1.6776152931005933E9, 0.0, 2023-02-28 12:14:53.100
227.0, 26873.16708244885, -4305.683589659166, 15640.990810512401, -3163.3753375262427, 14900.410461474714, 7442.393296050227, -187500.02235174447, -187500.02235174447, -0.184, -0.766, -0.63, 192.0, 0.0, 0.0, 0.0, 0.0, 0.0, 0.0, 0.0, 0.0, 0.0, 1.6776152931045809E9, 0.0, 2023-02-28 12:14:53.104
228.0, 26822.898009168865, -4304.655409414221, 15224.10842467647, -3164.4258695156423, 14680.916330923597, 7346.325498381317, -187500.02235174447, -187500.02235174447, -0.184, -0.766, -0.63, 192.0, 0.0, 0.0, 0.0, 0.0, 0.0, 0.0, 0.0, 0.0, 0.0, 1.6776152931105816E9, 0.0, 2023-02-28 12:14:53.110
229.0, 26946.61491472899, -4309.818662383397, 15896.180676958642, -3176.1605353546784, 15028.843585114908, 7675.700804674721, -187500.02235174447, -187500.02235174447, -0.188, -0.766, -0.628, 192.0, 250.0, 32.0, 232.0, 16.0, 236.0, 96.0, 0.0, 0.0, 0.0, 1.6776152931135428E9, 0.0, 2023-02-28 12:14:53.113
230.0, 27009.49037188177, -4314.266659530003, 16416.618694856013, -3176.8310876883374, 15303.993559359737, 7820.115425600461, -187500.02235174447, -187500.02235174447, -0.188, -0.766, -0.628, 192.0, 0.0, 0.0, 0.0, 0.0, 0.0, 0.0, 0.0, 0.0, 0.0, 1.6776152931175675E9, 0.0, 2023-02-28 12:14:53.117
231.0, 26887.85217855599, -4312.500871718034, 15795.284902487387, -3165.3199392938545, 14984.005985737562, 7505.134642736273, -187500.02235174447, -187500.02235174447, -0.188, -0.766, -0.628, 192.0, 0.0, 0.0, 0.0, 0.0, 0.0, 0.0, 0.0, 0.0, 0.0, 1.6776152931216617E9, 0.0, 2023-02-28 12:14:53.121
232.0, 26799.719250168713, -4314.311363018914, 15211.233819870213, -3164.7387939380164, 14671.61800523019, 7326.968887683021, -187500.02235174447, -187500.02235174447, -0.188, -0.766, -0.628, 192.0, 0.0, 0.0, 0.0, 0.0, 0.0, 0.0, 0.0, 0.0, 0.0, 1.6776152931246269E9, 0.0, 2023-02-28 12:14:53.124
233.0, 26895.764696093167, -4319.653429943733, 15742.132454172666, -3175.937017910125, 14940.442435794168, 7612.0653882104625, -187500.02235174447, -187500.02235174447, -0.188, -0.766, -0.628, 192.0, 0.0, 0.0, 0.0, 0.0, 0.0, 0.0, 0.0, 0.0, 0.0, 1.677615293128676E9, 0.0, 2023-02-28 12:14:53.128
234.0, 26996.01226997522, -4320.234575299571, 16414.8752587885, -3178.842744689315, 15295.87987612246, 7834.666411240865, -187500.02235174447, -187500.02235174447, -0.188, -0.766, -0.628, 192.0, 0.0, 0.0, 0.0, 0.0, 0.0, 0.0, 0.0, 0.0, 0.0, 1.6776152931325793E9, 0.0, 2023-02-28 12:14:53.132
235.0, 26900.235044984227, -4319.13933982126, 15953.49054974205, -3168.069203861857, 15059.867806418873, 7568.54654175598, -187500.02235174447, -187500.02235174447, -0.188, -0.766, -0.628, 192.0, 0.0, 0.0, 0.0, 0.0, 0.0, 0.0, 0.0, 0.0, 0.0, 1.6776152931366296E9, 0.0, 2023-02-28 12:14:53.136
236.0, 26792.142008798364, -4320.927479377685, 15240.82752952904, -3165.6775672051394, 14682.816229202299, 7317.0447131448645, -187500.02235174447, -187500.02235174447, -0.188, -0.766, -0.628, 192.0, 0.0, 0.0, 0.0, 0.0, 0.0, 0.0, 0.0, 0.0, 0.0, 1.677615293140611E9, 0.0, 2023-02-28 12:14:53.140
237.0, 26862.17002417684, -4327.051857358439, 15594.208609367444, -3178.1498406112005, 14861.674888333666, 7535.667125662223, -187500.02235174447, -187500.02235174447, -0.188, -0.766, -0.628, 192.0, 0.0, 0.0, 0.0, 0.0, 0.0, 0.0, 0.0, 0.0, 0.0, 1.6776152931455822E9, 0.0, 2023-02-28 12:14:53.145
238.0, 26981.10365642353, -4329.778770181986, 16370.90937744491, -3184.743605225516, 15270.622404887965, 7822.372951790447, -187500.02235174447, -187500.02235174447, -0.188, -0.766, -0.628, 192.0, 0.0, 0.0, 0.0, 0.0, 0.0, 0.0, 0.0, 0.0, 0.0, 1.6776152931495795E9, 0.0, 2023-02-28 12:14:53.149
239.0, 26917.021205070163, -4328.0576858589275, 16101.481449780638, -3174.7747271984495, 15137.450711423244, 7623.643591838311, -187500.02235174447, -187500.02235174447, -0.19, -0.766, -0.626, 192.0, 250.0, 16.0, 232.0, 16.0, 236.0, 112.0, 0.0, 0.0, 0.0, 1.6776152931525843E9, 0.0, 2023-02-28 12:14:53.152
240.0, 26779.759142370123, -4331.3433922938575, 15304.082966337559, -3169.5667707403627, 14719.361331386726, 7311.9261636646, -187500.02235174447, -187500.02235174447, -0.19, -0.766, -0.626, 192.0, 0.0, 0.0, 0.0, 0.0, 0.0, 0.0, 0.0, 0.0, 0.0, 1.6776152931566544E9, 0.0, 2023-02-28 12:14:53.156
241.0, 26824.999073147665, -4334.42793302869, 15462.847407203604, -3178.7980412004044, 14798.374748036236, 7462.4428108266375, -187500.02235174447, -187500.02235174447, -0.19, -0.766, -0.626, 192.0, 0.0, 0.0, 0.0, 0.0, 0.0, 0.0, 0.0, 0.0, 0.0, 1.6776152931605945E9, 0.0, 2023-02-28 12:14:53.160
242.0, 26961.724693980777, -4335.992555140562, 16289.07964099403, -3187.336407582332, 15230.948058479795, 7794.3215124990365, -187500.02235174447, -187500.02235174447, -0.19, -0.766, -0.626, 192.0, 0.0, 0.0, 0.0, 0.0, 0.0, 0.0, 0.0, 0.0, 0.0, 1.6776152931646547E9, 0.0, 2023-02-28 12:14:53.164
243.0, 26930.074623832064, -4333.690325461665, 16232.149747866362, -3179.5132970229743, 15209.62449426943, 7676.840743641943, -187500.02235174447, -187500.02235174447, -0.19, -0.766, -0.626, 192.0, 0.0, 0.0, 0.0, 0.0, 0.0, 0.0, 0.0, 0.0, 0.0, 1.677615293169603E9, 0.0, 2023-02-28 12:14:53.169
244.0, 26787.35873548493, -4332.840959172364, 15406.029272798214, -3170.5055440074857, 14780.113372816251, 7336.870710476722, -187500.02235174447, -187500.02235174447, -0.19, -0.766, -0.626, 192.0, 0.0, 0.0, 0.0, 0.0, 0.0, 0.0, 0.0, 0.0, 0.0, 1.677615293173608E9, 0.0, 2023-02-28 12:14:53.173
245.0, 26801.820314147513, -4334.249119073048, 15353.033286694681, -3177.3898812997204, 14746.54105264438, 7402.182507775129, -187500.02235174447, -187500.02235174447, -0.19, -0.766, -0.626, 192.0, 0.0, 0.0, 0.0, 0.0, 0.0, 0.0, 0.0, 0.0, 0.0, 1.6776152931766489E9, 0.0, 2023-02-28 12:14:53.176
246.0, 26943.306856549607, -4336.663107474221, 16168.648441868836, -3187.5152215379744, 15170.732458917197, 7751.160293955839, -187500.02235174447, -187500.02235174447, -0.19, -0.766, -0.626, 192.0, 0.0, 0.0, 0.0, 0.0, 0.0, 0.0, 0.0, 0.0, 0.0, 1.6776152931806548E9, 0.0, 2023-02-28 12:14:53.180
247.0, 26950.72763570877, -4333.265642317015, 16329.46924322477, -3182.262561590977, 15259.178311726846, 7728.4062181003355, -187500.02235174447, -187500.02235174447, -0.19, -0.766, -0.626, 192.0, 0.0, 0.0, 0.0, 0.0, 0.0, 0.0, 0.0, 0.0, 0.0, 1.6776152931846397E9, 0.0, 2023-02-28 12:14:53.184
248.0, 26814.359642786938, -4329.890528904263, 15532.428387692975, -3171.3102068078765, 14845.492225348024, 7376.768574329445, -187500.02235174447, -187500.02235174447, -0.19, -0.766, -0.626, 192.0, 0.0, 0.0, 0.0, 0.0, 0.0, 0.0, 0.0, 0.0, 0.0, 1.6776152931886735E9, 0.0, 2023-02-28 12:14:53.188
249.0, 26796.79117164507, -4331.365744038313, 15271.06943977707, -3175.0205963874578, 14702.441060834059, 7351.980489728509, -187500.02235174447, -187500.02235174447, -0.188, -0.766, -0.628, 192.0, 250.0, 32.0, 232.0, 16.0, 236.0, 96.0, 0.0, 0.0, 0.0, 1.6776152931927245E9, 0.0, 2023-02-28 12:14:53.192
250.0, 26919.636359171436, -4337.71363946362, 16026.133719221798, -3186.5093930374856, 15091.540228312044, 7698.14195610785, -187500.02235174447, -187500.02235174447, -0.188, -0.766, -0.628, 192.0, 0.0, 0.0, 0.0, 0.0, 0.0, 0.0, 0.0, 0.0, 0.0, 1.67761529319664E9, 0.0, 2023-02-28 12:14:53.196
251.0, 26960.115368379997, -4338.026563885995, 16398.044395213652, -3184.2518668474995, 15291.767155142685, 7768.952282542263, -187500.02235174447, -187500.02235174447, -0.188, -0.766, -0.628, 192.0, 0.0, 0.0, 0.0, 0.0, 0.0, 0.0, 0.0, 0.0, 0.0, 1.6776152932016504E9, 0.0, 2023-02-28 12:14:53.201
252.0, 26829.536477272093, -4336.081962118383, 15679.413459231075, -3172.2936835639102, 14920.750548929043, 7428.289345298928, -187500.02235174447, -187500.02235174447, -0.188, -0.766, -0.628, 192.0, 0.0, 0.0, 0.0, 0.0, 0.0, 0.0, 0.0, 0.0, 0.0, 1.677615293204751E9, 0.0, 2023-02-28 12:14:53.204
253.0, 26767.376275941882, -4338.540654008467, 15225.985971210715, -3173.7018434645947, 14680.692813479045, 7313.803710198845, -187500.02235174447, -187500.02235174447, -0.188, -0.766, -0.628, 192.0, 0.0, 0.0, 0.0, 0.0, 0.0, 0.0, 0.0, 0.0, 0.0, 1.6776152932086885E9, 0.0, 2023-02-28 12:14:53.208
254.0, 26889.014469267666, -4340.798180198452, 15870.85615049078, -3184.2965703364102, 15016.572477408943, 7635.288850699527, -187500.02235174447, -187500.02235174447, -0.188, -0.766, -0.628, 192.0, 0.0, 0.0, 0.0, 0.0, 0.0, 0.0, 0.0, 0.0, 0.0, 1.6776152932126586E9, 0.0, 2023-02-28 12:14:53.212
255.0, 26969.368990584495, -4339.457075531134, 16425.939372293877, -3184.8330122033376, 15311.101414096525, 7799.104785812472, -187500.02235174447, -187500.02235174447, -0.188, -0.766, -0.628, 192.0, 0.0, 0.0, 0.0, 0.0, 0.0, 0.0, 0.0, 0.0, 0.0, 1.6776152932166908E9, 0.0, 2023-02-28 12:14:53.216
0.0, 26859.443111353292, -4339.47942727559, 15834.668676217638, -3174.5512097538963, 15005.486012159112, 7488.572000094891, -187500.02235174447, -187500.02235174447, -0.188, -0.766, -0.628, 192.0, 0.0, 0.0, 0.0, 0.0, 0.0, 0.0, 0.0, 0.0, 0.0, 1.6776152932227497E9, 0.0, 2023-02-28 12:14:53.222
1.0, 26772.606584144425, -4338.540654008467, 15218.744006007197, -3172.2713318194546, 14682.816229202299, 7293.6871401890685, -187500.02235174447, -187500.02235174447, -0.188, -0.766, -0.628, 192.0, 0.0, 0.0, 0.0, 0.0, 0.0, 0.0, 0.0, 0.0, 0.0, 1.6776152932257133E9, 0.0, 2023-02-28 12:14:53.225
2.0, 26874.28466967162, -4342.3180988214135, 15713.857497436704, -3183.2013348581, 14938.564889259922, 7574.246236592083, -187500.02235174447, -187500.02235174447, -0.188, -0.766, -0.628, 192.0, 0.0, 0.0, 0.0, 0.0, 0.0, 0.0, 0.0, 0.0, 0.0, 1.6776152932297113E9, 0.0, 2023-02-28 12:14:53.229
3.0, 26977.68383952187, -4343.14511336626, 16412.304808176137, -3186.8893726932256, 15305.245257049235, 7813.49930924169, -187500.02235174447, -187500.02235174447, -0.188, -0.766, -0.628, 192.0, 0.0, 0.0, 0.0, 0.0, 0.0, 0.0, 0.0, 0.0, 0.0, 1.6776152932326784E9, 0.0, 2023-02-28 12:14:53.232
4.0, 26889.103876245485, -4339.166502853215, 15987.73342224758, -3176.5181632659633, 15089.059184677504, 7556.186027072195, -187500.02235174447, -187500.02235174447, -0.19, -0.766, -0.63, 192.0, 250.0, 16.0, 232.0, 16.0, 236.0, 80.0, 0.0, 0.0, 0.0, 1.6776152932366974E9, 0.0, 2023-02-28 12:14:53.236
5.0, 26781.480226693184, -4337.467770274612, 15251.109331978481, -3171.757241696983, 14702.374005600692, 7295.005893111932, -187500.02235174447, -187500.02235174447, -0.19, -0.766, -0.63, 192.0, 0.0, 0.0, 0.0, 0.0, 0.0, 0.0, 0.0, 0.0, 0.0, 1.6776152932407155E9, 0.0, 2023-02-28 12:14:53.240
6.0, 26855.79977700708, -4340.798180198452, 15567.36416427662, -3181.6814162351393, 14861.741943567033, 7505.782843325477, -187500.02235174447, -187500.02235174447, -0.19, -0.766, -0.63, 192.0, 0.0, 0.0, 0.0, 0.0, 0.0, 0.0, 0.0, 0.0, 0.0, 1.6776152932446852E9, 0.0, 2023-02-28 12:14:53.244
7.0, 26983.651755291434, -4344.1956453556595, 16358.817083694588, -3188.4986982940077, 15276.4562101908, 7802.0105125916625, -187500.02235174447, -187500.02235174447, -0.19, -0.766, -0.63, 192.0, 0.0, 0.0, 0.0, 0.0, 0.0, 0.0, 0.0, 0.0, 0.0, 1.6776152932487044E9, 0.0, 2023-02-28 12:14:53.248
8.0, 26936.444871001826, -4342.295747076958, 16132.818595506978, -3179.2003726006, 15162.95405184675, 7617.6980278132, -187500.02235174447, -187500.02235174447, -0.19, -0.766, -0.63, 192.0, 0.0, 0.0, 0.0, 0.0, 0.0, 0.0, 0.0, 0.0, 0.0, 1.6776152932527065E9, 0.0, 2023-02-28 12:14:53.252
9.0, 26807.385898516884, -4342.251043588048, 15326.41235904841, -3172.651311475195, 14738.427369407103, 7304.281867060884, -187500.02235174447, -187500.02235174447, -0.19, -0.766, -0.63, 192.0, 0.0, 0.0, 0.0, 0.0, 0.0, 0.0, 0.0, 0.0, 0.0, 1.6776152932577195E9, 0.0, 2023-02-28 12:14:53.257
10.0, 26836.04083490859, -4346.408468056735, 15441.590898226608, -3182.0613958908793, 14789.344643276292, 7442.527406516959, -187500.02235174447, -187500.02235174447, -0.19, -0.766, -0.63, 192.0, 0.0, 0.0, 0.0, 0.0, 0.0, 0.0, 0.0, 0.0, 0.0, 1.6776152932607012E9, 0.0, 2023-02-28 12:14:53.260
11.0, 26978.712019766812, -4348.397773313257, 16271.22059717424, -3191.5161837954743, 15223.616686298454, 7778.787050102598, -187500.02235174447, -187500.02235174447, -0.19, -0.766, -0.63, 192.0, 0.0, 0.0, 0.0, 0.0, 0.0, 0.0, 0.0, 0.0, 0.0, 1.6776152932637491E9, 0.0, 2023-02-28 12:14:53.263
12.0, 26967.96083068381, -4344.687383733676, 16262.257547647661, -3183.9389424251253, 15226.120081677447, 7678.740641920644, -187500.02235174447, -187500.02235174447, -0.19, -0.766, -0.63, 192.0, 0.0, 0.0, 0.0, 0.0, 0.0, 0.0, 0.0, 0.0, 0.0, 1.6776152932688625E9, 0.0, 2023-02-28 12:14:53.268
13.0, 26827.41306154884, -4341.0887528763715, 15437.47817724683, -3174.014767886969, 14798.844134669798, 7328.980544683999, -187500.02235174447, -187500.02235174447, -0.19, -0.766, -0.63, 192.0, 0.0, 0.0, 0.0, 0.0, 0.0, 0.0, 0.0, 0.0, 0.0, 1.6776152932728229E9, 0.0, 2023-02-28 12:14:53.272
14.0, 26840.60059077747, -4341.178159854193, 15341.544490044653, -3179.6921109786167, 14742.58479387579, 7379.897818553188, -187500.02235174447, -187500.02235174447, -0.188, -0.772, -0.634, 192.0, 250.0, 32.0, 231.0, 224.0, 236.0, 48.0, 0.0, 0.0, 0.0, 1.677615293276769E9, 0.0, 2023-02-28 12:14:53.276
15.0, 26976.00745868772, -4341.312270320925, 16151.348191660429, -3189.4821750500414, 15162.90934835784, 7734.888223992375, -187500.02235174447, -187500.02235174447, -0.188, -0.772, -0.634, 192.0, 0.0, 0.0, 0.0, 0.0, 0.0, 0.0, 0.0, 0.0, 0.0, 1.6776152932807388E9, 0.0, 2023-02-28 12:14:53.280
16.0, 26982.645926790945, -4337.177197596693, 16358.660621483401, -3183.8942389362146, 15279.339585225534, 7730.551985568045, -187500.02235174447, -187500.02235174447, -0.188, -0.772, -0.634, 192.0, 0.0, 0.0, 0.0, 0.0, 0.0, 0.0, 0.0, 0.0, 0.0, 1.677615293285769E9, 0.0, 2023-02-28 12:14:53.285
17.0, 26854.16809966184, -4331.678668460688, 15570.873388156104, -3172.0254626304463, 14873.6107198728, 7376.589760373803, -187500.02235174447, -187500.02235174447, -0.188, -0.772, -0.634, 192.0, 0.0, 0.0, 0.0, 0.0, 0.0, 0.0, 0.0, 0.0, 0.0, 1.6776152932887814E9, 0.0, 2023-02-28 12:14:53.288
18.0, 26843.41691057884, -4328.482369003578, 15265.302689707602, -3173.455974275586, 14712.991084216963, 7330.567518540325, -187500.02235174447, -187500.02235174447, -0.188, -0.772, -0.634, 192.0, 0.0, 0.0, 0.0, 0.0, 0.0, 0.0, 0.0, 0.0, 0.0, 1.677615293291804E9, 0.0, 2023-02-28 12:14:53.291
19.0, 26967.022057416685, -4329.354087037335, 15999.78101250899, -3183.3354453248317, 15095.3623766139, 7671.4092697393025, -187500.02235174447, -187500.02235174447, -0.188, -0.772, -0.634, 192.0, 0.0, 0.0, 0.0, 0.0, 0.0, 0.0, 0.0, 0.0, 0.0, 1.6776152932967508E9, 0.0, 2023-02-28 12:14:53.296
20.0, 27011.658491093935, -4328.281203303481, 16411.63425584248, -3181.2567330904885, 15318.432786277866, 7759.095163237473, -187500.02235174447, -187500.02235174447, -0.188, -0.772, -0.634, 192.0, 0.0, 0.0, 0.0, 0.0, 0.0, 0.0, 0.0, 0.0, 0.0, 1.6776152933007553E9, 0.0, 2023-02-28 12:14:53.300
21.0, 26900.19034149532, -4323.989668368062, 15715.019788148378, -3169.499715506997, 14956.24511912407, 7424.713066186079, -187500.02235174447, -187500.02235174447, -0.188, -0.772, -0.634, 192.0, 0.0, 0.0, 0.0, 0.0, 0.0, 0.0, 0.0, 0.0, 0.0, 1.6776152933048344E9, 0.0, 2023-02-28 12:14:53.304
22.0, 26864.539309089105, -4322.469749745101, 15222.074415931038, -3169.2538463179885, 14696.875476464687, 7296.749329179446, -187500.02235174447, -187500.02235174447, -0.188, -0.772, -0.634, 192.0, 0.0, 0.0, 0.0, 0.0, 0.0, 0.0, 0.0, 0.0, 0.0, 1.6776152933087976E9, 0.0, 2023-02-28 12:14:53.308
23.0, 26990.223168161294, -4329.912880648718, 15838.714341964049, -3182.128451124245, 15015.030207041527, 7608.26559165306, -187500.02235174447, -187500.02235174447, -0.188, -0.772, -0.634, 192.0, 0.0, 0.0, 0.0, 0.0, 0.0, 0.0, 0.0, 0.0, 0.0, 1.6776152933138163E9, 0.0, 2023-02-28 12:14:53.313
24.0, 27044.135575787495, -4324.928441635185, 16428.331008950594, -3182.039044146424, 15326.41235904841, 7785.269055994637, -187500.02235174447, -187500.02235174447, -0.188, -0.772, -0.63, 192.0, 250.0, 32.0, 231.0, 224.0, 236.0, 80.0, 0.0, 0.0, 0.0, 1.6776152933169346E9, 0.0, 2023-02-28 12:14:53.316
25.0, 26953.09692062103, -4320.547499721944, 15867.19046440011, -3169.812639929371, 15039.907698620285, 7485.330997148872, -187500.02235174447, -187500.02235174447, -0.188, -0.772, -0.63, 192.0, 0.0, 0.0, 0.0, 0.0, 0.0, 0.0, 0.0, 0.0, 0.0, 1.6776152933208678E9, 0.0, 2023-02-28 12:14:53.320
26.0, 26846.590858291493, -4320.055761343928, 15221.828546742028, -3167.0857271058235, 14702.329302111782, 7278.331491748273, -187500.02235174447, -187500.02235174447, -0.188, -0.772, -0.63, 192.0, 0.0, 0.0, 0.0, 0.0, 0.0, 0.0, 0.0, 0.0, 0.0, 1.6776152933249424E9, 0.0, 2023-02-28 12:14:53.324
27.0, 26922.653844672903, -4321.083941588872, 15682.073316821256, -3178.0604336333795, 14942.968182917617, 7538.774018141511, -187500.02235174447, -187500.02235174447, -0.188, -0.772, -0.63, 192.0, 0.0, 0.0, 0.0, 0.0, 0.0, 0.0, 0.0, 0.0, 0.0, 1.6776152933288028E9, 0.0, 2023-02-28 12:14:53.328
28.0, 27036.558334417146, -4319.675781688187, 16403.699386560846, -3183.067224391368, 15325.160661358914, 7787.1018990399725, -187500.02235174447, -187500.02235174447, -0.188, -0.772, -0.63, 192.0, 0.0, 0.0, 0.0, 0.0, 0.0, 0.0, 0.0, 0.0, 0.0, 1.6776152933327997E9, 0.0, 2023-02-28 12:14:53.332
29.0, 26974.353429598028, -4313.573755451889, 16020.366969152328, -3172.8524771752927, 15132.242754965158, 7546.7312391676005, -187500.02235174447, -187500.02235174447, -0.188, -0.772, -0.63, 192.0, 0.0, 0.0, 0.0, 0.0, 0.0, 0.0, 0.0, 0.0, 0.0, 1.677615293336826E9, 0.0, 2023-02-28 12:14:53.336
30.0, 26864.78517827811, -4311.182118795171, 15267.090829264025, -3167.2198375725557, 14736.102787983751, 7274.241122512952, -187500.02235174447, -187500.02235174447, -0.188, -0.772, -0.63, 192.0, 0.0, 0.0, 0.0, 0.0, 0.0, 0.0, 0.0, 0.0, 0.0, 1.677615293341833E9, 0.0, 2023-02-28 12:14:53.341
31.0, 26936.66838844638, -4313.976086852084, 15540.564422674708, -3177.300474321899, 14872.403725672213, 7471.562322564402, -187500.02235174447, -187500.02235174447, -0.188, -0.772, -0.63, 192.0, 0.0, 0.0, 0.0, 0.0, 0.0, 0.0, 0.0, 0.0, 0.0, 1.6776152933448265E9, 0.0, 2023-02-28 12:14:53.344
32.0, 27077.819654681643, -4314.490176974557, 16344.66842945438, -3185.168288370167, 15290.940140597839, 7779.725823369721, -187500.02235174447, -187500.02235174447, -0.188, -0.772, -0.63, 192.0, 0.0, 0.0, 0.0, 0.0, 0.0, 0.0, 0.0, 0.0, 0.0, 1.677615293347823E9, 0.0, 2023-02-28 12:14:53.347
33.0, 27031.551543659156, -4312.165595551204, 16164.423962166782, -3176.227590588044, 15200.326168576023, 7613.31708589996, -187500.02235174447, -187500.02235174447, -0.188, -0.772, -0.63, 192.0, 0.0, 0.0, 0.0, 0.0, 0.0, 0.0, 0.0, 0.0, 0.0, 1.6776152933528707E9, 0.0, 2023-02-28 12:14:53.352
34.0, 26928.800574398112, -4315.0266188414835, 15349.144083159457, -3169.075032362346, 14771.083268056307, 7287.5180587194045, -187500.02235174447, -187500.02235174447, -0.188, -0.776, -0.62, 192.0, 250.0, 32.0, 231.0, 192.0, 236.0, 160.0, 0.0, 0.0, 0.0, 1.67761529335686E9, 0.0, 2023-02-28 12:14:53.356
35.0, 26944.71501645029, -4321.352162522336, 15419.373264238033, -3177.948674911103, 14799.760556192465, 7406.652856666191, -187500.02235174447, -187500.02235174447, -0.188, -0.776, -0.62, 192.0, 0.0, 0.0, 0.0, 0.0, 0.0, 0.0, 0.0, 0.0, 0.0, 1.6776152933608391E9, 0.0, 2023-02-28 12:14:53.360
36.0, 27065.705009186866, -4325.66604920221, 16248.31005910755, -3188.7892709719267, 15227.550593322587, 7750.489741622179, -187500.02235174447, -187500.02235174447, -0.188, -0.776, -0.62, 192.0, 0.0, 0.0, 0.0, 0.0, 0.0, 0.0, 0.0, 0.0, 0.0, 1.677615293364823E9, 0.0, 2023-02-28 12:14:53.364
37.0, 27031.842116337077, -4321.754493922531, 16284.609292102969, -3182.2178581020667, 15248.605936599486, 7678.003034353618, -187500.02235174447, -187500.02235174447, -0.188, -0.776, -0.62, 192.0, 0.0, 0.0, 0.0, 0.0, 0.0, 0.0, 0.0, 0.0, 0.0, 1.6776152933689468E9, 0.0, 2023-02-28 12:14:53.368
38.0, 26893.350707691996, -4316.211261297615, 15461.908633936482, -3171.176096341145, 14824.213364626572, 7331.394533085172, -187500.02235174447, -187500.02235174447, -0.188, -0.776, -0.62, 192.0, 0.0, 0.0, 0.0, 0.0, 0.0, 0.0, 0.0, 0.0, 0.0, 1.6776152933728976E9, 0.0, 2023-02-28 12:14:53.372
39.0, 26897.172855993853, -4316.7253514200875, 15319.192745589346, -3176.8981429217033, 14744.81996832132, 7354.841513018789, -187500.02235174447, -187500.02235174447, -0.188, -0.776, -0.62, 192.0, 0.0, 0.0, 0.0, 0.0, 0.0, 0.0, 0.0, 0.0, 0.0, 1.677615293375929E9, 0.0, 2023-02-28 12:14:53.375
40.0, 27093.37646882254, -4323.1850055676705, 16116.94885694371, -3189.526878538952, 15157.008487821638, 7699.907743919819, -187500.02235174447, -187500.02235174447, -0.188, -0.776, -0.62, 192.0, 0.0, 0.0, 0.0, 0.0, 0.0, 0.0, 0.0, 0.0, 0.0, 1.6776152933798647E9, 0.0, 2023-02-28 12:14:53.379
41.0, 27132.760242552788, -4322.715618934109, 16370.842322211543, -3184.430680803142, 15297.93623661235, 7721.477177319191, -187500.02235174447, -187500.02235174447, -0.188, -0.776, -0.62, 192.0, 0.0, 0.0, 0.0, 0.0, 0.0, 0.0, 0.0, 0.0, 0.0, 1.6776152933848472E9, 0.0, 2023-02-28 12:14:53.384
42.0, 26927.213600541785, -4317.32884852038, 15600.020062925823, -3171.8019451858936, 14897.504734695523, 7374.242827205995, -187500.02235174447, -187500.02235174447, -0.188, -0.776, -0.62, 192.0, 0.0, 0.0, 0.0, 0.0, 0.0, 0.0, 0.0, 0.0, 0.0, 1.6776152933889477E9, 0.0, 2023-02-28 12:14:53.388
43.0, 26858.951372975276, -4318.647601443244, 15252.673954090353, -3174.2159335870665, 14708.274866136893, 7314.273096832407, -187500.02235174447, -187500.02235174447, -0.188, -0.776, -0.62, 192.0, 0.0, 0.0, 0.0, 0.0, 0.0, 0.0, 0.0, 0.0, 0.0, 1.6776152933948867E9, 0.0, 2023-02-28 12:14:53.394
44.0, 26989.86554025001, -4322.022714855995, 15966.074581870387, -3186.464689548575, 15075.581082770954, 7649.079877028451, -187500.02235174447, -187500.02235174447, -0.188, -0.77, -0.618, 192.0, 250.0, 32.0, 231.0, 240.0, 236.0, 176.0, 0.0, 0.0, 0.0, 1.677615293397915E9, 0.0, 2023-02-28 12:14:53.397
45.0, 27071.091779600596, -4318.401732254235, 16419.323255935105, -3184.5647912698737, 15314.565934487098, 7762.962015028241, -187500.02235174447, -187500.02235174447, -0.188, -0.77, -0.618, 192.0, 0.0, 0.0, 0.0, 0.0, 0.0, 0.0, 0.0, 0.0, 0.0, 1.6776152934008794E9, 0.0, 2023-02-28 12:14:53.400
46.0, 26970.173653384885, -4317.038275842461, 15750.134378687666, -3172.5395527529186, 14967.532750074, 7431.642106967224, -187500.02235174447, -187500.02235174447, -0.188, -0.77, -0.618, 192.0, 0.0, 0.0, 0.0, 0.0, 0.0, 0.0, 0.0, 0.0, 0.0, 1.6776152934058857E9, 0.0, 2023-02-28 12:14:53.405
47.0, 26904.861856086478, -4319.362857265814, 15222.655561286874, -3171.8690004192595, 14692.516886295902, 7274.755212635424, -187500.02235174447, -187500.02235174447, -0.188, -0.77, -0.618, 192.0, 0.0, 0.0, 0.0, 0.0, 0.0, 0.0, 0.0, 0.0, 0.0, 1.6776152934088717E9, 0.0, 2023-02-28 12:14:53.408
48.0, 27026.678863367903, -4322.313287533914, 15810.685254417092, -3183.5366110249297, 14995.695948087687, 7576.54846627098, -187500.02235174447, -187500.02235174447, -0.188, -0.77, -0.618, 192.0, 0.0, 0.0, 0.0, 0.0, 0.0, 0.0, 0.0, 0.0, 0.0, 1.67761529341291E9, 0.0, 2023-02-28 12:14:53.412
49.0, 27123.886600004033, -4321.061589844417, 16431.706122363346, -3184.5871430143293, 15322.925486913382, 7774.853143078464, -187500.02235174447, -187500.02235174447, -0.188, -0.77, -0.618, 192.0, 0.0, 0.0, 0.0, 0.0, 0.0, 0.0, 0.0, 0.0, 0.0, 1.677615293416957E9, 0.0, 2023-02-28 12:14:53.416
50.0, 26998.314499654116, -4317.172386309193, 15905.367243929773, -3171.8019451858936, 15052.73759993763, 7489.846049528844, -187500.02235174447, -187500.02235174447, -0.188, -0.77, -0.618, 192.0, 0.0, 0.0, 0.0, 0.0, 0.0, 0.0, 0.0, 0.0, 0.0, 1.677615293420956E9, 0.0, 2023-02-28 12:14:53.420
51.0, 26872.36241964846, -4315.674819430687, 15229.830471257028, -3167.845686417304, 14695.042633419353, 7268.697889888035, -187500.02235174447, -187500.02235174447, -0.188, -0.77, -0.618, 192.0, 0.0, 0.0, 0.0, 0.0, 0.0, 0.0, 0.0, 0.0, 0.0, 1.6776152934238937E9, 0.0, 2023-02-28 12:14:53.423
52.0, 26983.76351401371, -4317.306496775925, 15652.345496695698, -3177.5016400219965, 14914.80498490393, 7519.797387098955, -187500.02235174447, -187500.02235174447, -0.188, -0.77, -0.618, 192.0, 0.0, 0.0, 0.0, 0.0, 0.0, 0.0, 0.0, 0.0, 0.0, 1.6776152934279172E9, 0.0, 2023-02-28 12:14:53.427
53.0, 27149.23347821635, -4315.496005475045, 16397.15032543544, -3182.7990034579043, 15306.049919849625, 7782.452736193269, -187500.02235174447, -187500.02235174447, -0.188, -0.77, -0.618, 192.0, 0.0, 0.0, 0.0, 0.0, 0.0, 0.0, 0.0, 0.0, 0.0, 1.6776152934319572E9, 0.0, 2023-02-28 12:14:53.431
54.0, 27015.7265085848, -4308.5669646939, 16054.118103279843, -3171.2207998300555, 15130.812243320019, 7559.963471885142, -187500.02235174447, -187500.02235174447, -0.188, -0.766, -0.624, 192.0, 250.0, 32.0, 232.0, 16.0, 236.0, 128.0, 0.0, 0.0, 0.0, 1.6776152934360132E9, 0.0, 2023-02-28 12:14:53.436
55.0, 26874.195262693796, -4303.8730983582855, 15276.143285768425, -3163.1518200816895, 14725.86568902322, 7270.977767822477, -187500.02235174447, -187500.02235174447, -0.188, -0.766, -0.624, 192.0, 0.0, 0.0, 0.0, 0.0, 0.0, 0.0, 0.0, 0.0, 0.0, 1.6776152934409811E9, 0.0, 2023-02-28 12:14:53.440
56.0, 26947.598391485026, -4307.2705635154925, 15508.959056014903, -3172.092517863812, 14841.848891001808, 7449.992889165032, -187500.02235174447, -187500.02235174447, -0.188, -0.766, -0.624, 192.0, 0.0, 0.0, 0.0, 0.0, 0.0, 0.0, 0.0, 0.0, 0.0, 1.6776152934449236E9, 0.0, 2023-02-28 12:14:53.444
57.0, 27063.02279985223, -4304.1636710362045, 16321.936705343333, -3178.172192355656, 15266.643794374919, 7769.06404126454, -187500.02235174447, -187500.02235174447, -0.188, -0.766, -0.624, 192.0, 0.0, 0.0, 0.0, 0.0, 0.0, 0.0, 0.0, 0.0, 0.0, 1.6776152934489374E9, 0.0, 2023-02-28 12:14:53.448
58.0, 27017.626406863503, -4295.267676742992, 16185.546360677048, -3168.3821282842314, 15198.426270297323, 7623.956516260686, -187500.02235174447, -187500.02235174447, -0.188, -0.766, -0.624, 192.0, 0.0, 0.0, 0.0, 0.0, 0.0, 0.0, 0.0, 0.0, 0.0, 1.677615293451987E9, 0.0, 2023-02-28 12:14:53.451
59.0, 26894.35653619248, -4291.981970308062, 15362.935109488382, -3161.00605261398, 14766.858788354253, 7289.485012231471, -187500.02235174447, -187500.02235174447, -0.188, -0.766, -0.624, 192.0, 0.0, 0.0, 0.0, 0.0, 0.0, 0.0, 0.0, 0.0, 0.0, 1.6776152934560852E9, 0.0, 2023-02-28 12:14:53.456
60.0, 26942.636304215946, -4295.84882209883, 15385.823295810616, -3170.170267840656, 14772.469076212536, 7388.235019235018, -187500.02235174447, -187500.02235174447, -0.188, -0.766, -0.624, 192.0, 0.0, 0.0, 0.0, 0.0, 0.0, 0.0, 0.0, 0.0, 0.0, 1.6776152934599657E9, 0.0, 2023-02-28 12:14:53.459
61.0, 27085.93333791892, -4303.6942844026435, 16211.899067389855, -3181.234381346033, 15202.404880810367, 7730.663744290322, -187500.02235174447, -187500.02235174447, -0.188, -0.766, -0.624, 192.0, 0.0, 0.0, 0.0, 0.0, 0.0, 0.0, 0.0, 0.0, 0.0, 1.6776152934649477E9, 0.0, 2023-02-28 12:14:53.464
62.0, 27046.6836746554, -4302.844918113341, 16294.622873618946, -3174.238285331522, 15252.361029667978, 7674.002072096118, -187500.02235174447, -187500.02235174447, -0.188, -0.766, -0.624, 192.0, 0.0, 0.0, 0.0, 0.0, 0.0, 0.0, 0.0, 0.0, 0.0, 1.6776152934690127E9, 0.0, 2023-02-28 12:14:53.469
63.0, 26900.70443161779, -4297.547554677433, 15478.717145766872, -3162.905950892681, 14825.375655338248, 7327.192405127574, -187500.02235174447, -187500.02235174447, -0.188, -0.766, -0.624, 192.0, 0.0, 0.0, 0.0, 0.0, 0.0, 0.0, 0.0, 0.0, 0.0, 1.677615293473015E9, 0.0, 2023-02-28 12:14:53.473
64.0, 26903.47604793025, -4296.720540132587, 15290.806030131107, -3166.9292648946366, 14718.690779053066, 7337.988297699488, -187500.02235174447, -187500.02235174447, -0.184, -0.77, -0.626, 192.0, 250.0, 64.0, 231.0, 240.0, 236.0, 112.0, 0.0, 0.0, 0.0, 1.677615293477039E9, 0.0, 2023-02-28 12:14:53.477
65.0, 27032.40090994846, -4301.503813446023, 16075.173446556742, -3178.909799922681, 15122.162118215814, 7686.720214691189, -187500.02235174447, -187500.02235174447, -0.184, -0.77, -0.626, 192.0, 0.0, 0.0, 0.0, 0.0, 0.0, 0.0, 0.0, 0.0, 0.0, 1.6776152934799843E9, 0.0, 2023-02-28 12:14:53.479
66.0, 27054.842061381587, -4300.609743667811, 16375.223264124783, -3176.1605353546784, 15283.02762306066, 7722.170081397305, -187500.02235174447, -187500.02235174447, -0.184, -0.77, -0.626, 192.0, 0.0, 0.0, 0.0, 0.0, 0.0, 0.0, 0.0, 0.0, 0.0, 1.6776152934840112E9, 0.0, 2023-02-28 12:14:53.484
67.0, 26944.647961216924, -4297.8828308442635, 15621.85771725866, -3164.5376282379184, 14890.151010769727, 7376.03096676242, -187500.02235174447, -187500.02235174447, -0.184, -0.77, -0.626, 192.0, 0.0, 0.0, 0.0, 0.0, 0.0, 0.0, 0.0, 0.0, 0.0, 1.6776152934880235E9, 0.0, 2023-02-28 12:14:53.488
68.0, 26890.914367546367, -4300.207412267615, 15233.831433514528, -3168.270369561955, 14680.33518556776, 7294.201230311541, -187500.02235174447, -187500.02235174447, -0.184, -0.77, -0.626, 192.0, 0.0, 0.0, 0.0, 0.0, 0.0, 0.0, 0.0, 0.0, 0.0, 1.6776152934920654E9, 0.0, 2023-02-28 12:14:53.492
69.0, 26983.7188105248, -4305.035389069962, 15923.963895316589, -3180.4744220345524, 15038.54424220851, 7624.939993016719, -187500.02235174447, -187500.02235174447, -0.184, -0.77, -0.626, 192.0, 0.0, 0.0, 0.0, 0.0, 0.0, 0.0, 0.0, 0.0, 0.0, 1.6776152934970317E9, 0.0, 2023-02-28 12:14:53.497
70.0, 27064.252145797273, -4304.9906855810505, 16419.122090235007, -3180.161497612178, 15301.3113500251, 7750.757962555643, -187500.02235174447, -187500.02235174447, -0.184, -0.77, -0.626, 192.0, 0.0, 0.0, 0.0, 0.0, 0.0, 0.0, 0.0, 0.0, 0.0, 1.6776152935010753E9, 0.0, 2023-02-28 12:14:53.501
71.0, 26961.210603858308, -4303.023732068984, 15777.604672623238, -3168.8962184067036, 14968.449171596667, 7426.836481909333, -187500.02235174447, -187500.02235174447, -0.184, -0.77, -0.626, 192.0, 0.0, 0.0, 0.0, 0.0, 0.0, 0.0, 0.0, 0.0, 0.0, 1.6776152935050254E9, 0.0, 2023-02-28 12:14:53.505
72.0, 26898.603367638992, -4303.113139046805, 15213.62545652693, -3167.9350933951255, 14668.846388917733, 7262.059421784809, -187500.02235174447, -187500.02235174447, -0.184, -0.77, -0.626, 192.0, 0.0, 0.0, 0.0, 0.0, 0.0, 0.0, 0.0, 0.0, 0.0, 1.677615293508022E9, 0.0, 2023-02-28 12:14:53.508
73.0, 26996.548711842148, -4307.605839682322, 15768.194588207554, -3179.0215586449576, 14953.607613278344, 7555.023736360519, -187500.02235174447, -187500.02235174447, -0.184, -0.77, -0.626, 192.0, 0.0, 0.0, 0.0, 0.0, 0.0, 0.0, 0.0, 0.0, 0.0, 1.677615293512084E9, 0.0, 2023-02-28 12:14:53.512
74.0, 27100.84195147061, -4312.1432438067495, 16420.239677457772, -3182.687244735628, 15301.780736658662, 7763.073773750517, -187500.02235174447, -187500.02235174447, -0.186, -0.764, -0.63, 192.0, 250.0, 48.0, 232.0, 32.0, 236.0, 80.0, 0.0, 0.0, 0.0, 1.6776152935160367E9, 0.0, 2023-02-28 12:14:53.516
75.0, 27010.272682937706, -4305.2812582589695, 15931.71995064258, -3170.1926195851115, 15055.375105783358, 7481.665311058201, -187500.02235174447, -187500.02235174447, -0.186, -0.764, -0.63, 192.0, 0.0, 0.0, 0.0, 0.0, 0.0, 0.0, 0.0, 0.0, 0.0, 1.6776152935201142E9, 0.0, 2023-02-28 12:14:53.520
76.0, 26892.70250710279, -4300.587391923355, 15230.836299757517, -3165.0964218493014, 14686.90659843762, 7244.24508145393, -187500.02235174447, -187500.02235174447, -0.186, -0.764, -0.63, 192.0, 0.0, 0.0, 0.0, 0.0, 0.0, 0.0, 0.0, 0.0, 0.0, 1.6776152935250683E9, 0.0, 2023-02-28 12:14:53.525
77.0, 26971.581813285567, -4306.063569314905, 15612.939371220991, -3175.5793899988403, 14882.037327532451, 7485.845087271344, -187500.02235174447, -187500.02235174447, -0.186, -0.764, -0.63, 192.0, 0.0, 0.0, 0.0, 0.0, 0.0, 0.0, 0.0, 0.0, 0.0, 1.6776152935290291E9, 0.0, 2023-02-28 12:14:53.529
78.0, 27082.625279739535, -4310.243345528048, 16374.396249579937, -3179.558000511885, 15285.039280061637, 7767.074736008017, -187500.02235174447, -187500.02235174447, -0.186, -0.764, -0.63, 192.0, 0.0, 0.0, 0.0, 0.0, 0.0, 0.0, 0.0, 0.0, 0.0, 1.6776152935330904E9, 0.0, 2023-02-28 12:14:53.533
79.0, 27014.854790551042, -4303.403711724724, 16071.999498844089, -3167.5998172282957, 15130.90165029784, 7557.7730009285215, -187500.02235174447, -187500.02235174447, -0.186, -0.764, -0.63, 192.0, 0.0, 0.0, 0.0, 0.0, 0.0, 0.0, 0.0, 0.0, 0.0, 1.677615293536032E9, 0.0, 2023-02-28 12:14:53.536
80.0, 26884.633527354425, -4296.586429665856, 15279.652509647907, -3158.301491534888, 14718.713130797521, 7253.811628080801, -187500.02235174447, -187500.02235174447, -0.186, -0.764, -0.63, 192.0, 0.0, 0.0, 0.0, 0.0, 0.0, 0.0, 0.0, 0.0, 0.0, 1.6776152935401576E9, 0.0, 2023-02-28 12:14:53.540
81.0, 26927.727690664255, -4293.703054631121, 15469.15059914, -3165.1858288271224, 14814.244486599504, 7422.321429529361, -187500.02235174447, -187500.02235174447, -0.186, -0.764, -0.63, 192.0, 0.0, 0.0, 0.0, 0.0, 0.0, 0.0, 0.0, 0.0, 0.0, 1.6776152935440753E9, 0.0, 2023-02-28 12:14:53.544
82.0, 27073.863395913053, -4292.049025541428, 16290.532504383626, -3173.880657420237, 15245.230823186736, 7741.951375240252, -187500.02235174447, -187500.02235174447, -0.186, -0.764, -0.63, 192.0, 0.0, 0.0, 0.0, 0.0, 0.0, 0.0, 0.0, 0.0, 0.0, 1.6776152935480628E9, 0.0, 2023-02-28 12:14:53.548
83.0, 27028.86933432452, -4288.495098173034, 16201.237285284673, -3165.0517183603906, 15201.287293587602, 7620.6931615702115, -187500.02235174447, -187500.02235174447, -0.186, -0.764, -0.63, 192.0, 0.0, 0.0, 0.0, 0.0, 0.0, 0.0, 0.0, 0.0, 0.0, 1.67761529355307E9, 0.0, 2023-02-28 12:14:53.553
84.0, 26906.38177470944, -4283.801231837419, 15373.798057293661, -3154.792267655405, 14771.150323289672, 7280.63372142717, -187500.02235174447, -187500.02235174447, -0.182, -0.768, -0.626, 192.0, 250.0, 80.0, 232.0, 0.0, 236.0, 112.0, 0.0, 0.0, 0.0, 1.677615293557066E9, 0.0, 2023-02-28 12:14:53.557
85.0, 26920.441021971827, -4288.3162842173915, 15352.362734361022, -3164.4482212600974, 14750.34084920178, 7353.947443240577, -187500.02235174447, -187500.02235174447, -0.182, -0.768, -0.626, 192.0, 0.0, 0.0, 0.0, 0.0, 0.0, 0.0, 0.0, 0.0, 0.0, 1.6776152935610757E9, 0.0, 2023-02-28 12:14:53.561
86.0, 27040.805165863654, -4292.317246474891, 16176.024517539086, -3175.311169065377, 15172.14061881788, 7706.9261916787855, -187500.02235174447, -187500.02235174447, -0.182, -0.768, -0.626, 192.0, 0.0, 0.0, 0.0, 0.0, 0.0, 0.0, 0.0, 0.0, 0.0, 1.6776152935640917E9, 0.0, 2023-02-28 12:14:53.564
87.0, 27035.239581494283, -4287.869249328286, 16308.123327269952, -3168.6727009621504, 15245.856672031483, 7671.141048805839, -187500.02235174447, -187500.02235174447, -0.182, -0.768, -0.626, 192.0, 0.0, 0.0, 0.0, 0.0, 0.0, 0.0, 0.0, 0.0, 0.0, 1.677615293568087E9, 0.0, 2023-02-28 12:14:53.568
88.0, 26914.495457946716, -4285.567019649389, 15498.945474498925, -3158.9049886351813, 14821.88878320322, 7311.859108431234, -187500.02235174447, -187500.02235174447, -0.182, -0.768, -0.626, 192.0, 0.0, 0.0, 0.0, 0.0, 0.0, 0.0, 0.0, 0.0, 0.0, 1.6776152935720823E9, 0.0, 2023-02-28 12:14:53.572
89.0, 26908.393431710414, -4289.009188295507, 15267.336698453033, -3163.4870962485193, 14695.24379911945, 7300.839698414768, -187500.02235174447, -187500.02235174447, -0.182, -0.768, -0.626, 192.0, 0.0, 0.0, 0.0, 0.0, 0.0, 0.0, 0.0, 0.0, 0.0, 1.6776152935760684E9, 0.0, 2023-02-28 12:14:53.576
90.0, 27068.431922010415, -4294.820641853886, 16039.209489728153, -3174.8194306873597, 15090.467344578188, 7658.892292844331, -187500.02235174447, -187500.02235174447, -0.182, -0.768, -0.626, 192.0, 0.0, 0.0, 0.0, 0.0, 0.0, 0.0, 0.0, 0.0, 0.0, 1.6776152935801113E9, 0.0, 2023-02-28 12:14:53.580
91.0, 27106.541646306712, -4297.145223277238, 16380.945310705343, -3174.7747271984495, 15269.705983365297, 7712.894107448353, -187500.02235174447, -187500.02235174447, -0.182, -0.768, -0.626, 192.0, 0.0, 0.0, 0.0, 0.0, 0.0, 0.0, 0.0, 0.0, 0.0, 1.6776152935851634E9, 0.0, 2023-02-28 12:14:53.585
92.0, 26934.366158767483, -4293.390130208746, 15645.505862892374, -3163.643558459706, 14888.787554357954, 7364.676280579124, -187500.02235174447, -187500.02235174447, -0.182, -0.768, -0.626, 192.0, 0.0, 0.0, 0.0, 0.0, 0.0, 0.0, 0.0, 0.0, 0.0, 1.677615293588123E9, 0.0, 2023-02-28 12:14:53.588
93.0, 26875.871643527946, -4287.221048739082, 15218.498136818187, -3163.7776689264383, 14661.112685336197, 7260.986538050955, -187500.02235174447, -187500.02235174447, -0.182, -0.768, -0.626, 192.0, 0.0, 0.0, 0.0, 0.0, 0.0, 0.0, 0.0, 0.0, 0.0, 1.6776152935921025E9, 0.0, 2023-02-28 12:14:53.592
94.0, 27000.706136310833, -4288.9644848065955, 15888.134048954733, -3175.646445232206, 15008.123518004837, 7584.013948919052, -187500.02235174447, -187500.02235174447, -0.182, -0.768, -0.628, 192.0, 250.0, 80.0, 232.0, 0.0, 236.0, 96.0, 0.0, 0.0, 0.0, 1.6776152935961049E9, 0.0, 2023-02-28 12:14:53.596
95.0, 27085.910986174466, -4289.143298762238, 16415.702273333343, -3174.662968476173, 15289.353166741512, 7736.9222327378075, -187500.02235174447, -187500.02235174447, -0.182, -0.768, -0.628, 192.0, 0.0, 0.0, 0.0, 0.0, 0.0, 0.0, 0.0, 0.0, 0.0, 1.677615293600116E9, 0.0, 2023-02-28 12:14:53.600
96.0, 26975.56042379861, -4284.628246382266, 15801.31987349032, -3162.0789363478348, 14970.594939064376, 7425.830653408844, -187500.02235174447, -187500.02235174447, -0.182, -0.768, -0.628, 192.0, 0.0, 0.0, 0.0, 0.0, 0.0, 0.0, 0.0, 0.0, 0.0, 1.6776152936041648E9, 0.0, 2023-02-28 12:14:53.604
97.0, 26892.523693147148, -4282.393071936735, 15204.304779089069, -3160.335500280321, 14651.121455564673, 7239.953546518511, -187500.02235174447, -187500.02235174447, -0.182, -0.768, -0.628, 192.0, 0.0, 0.0, 0.0, 0.0, 0.0, 0.0, 0.0, 0.0, 0.0, 1.6776152936081233E9, 0.0, 2023-02-28 12:14:53.608
98.0, 26987.943290226853, -4282.281313214459, 15726.329770842764, -3171.466669019064, 14916.86134539382, 7524.670067390212, -187500.02235174447, -187500.02235174447, -0.182, -0.768, -0.628, 192.0, 0.0, 0.0, 0.0, 0.0, 0.0, 0.0, 0.0, 0.0, 0.0, 1.67761529361313E9, 0.0, 2023-02-28 12:14:53.613
99.0, 27101.490152059814, -4278.70503410161, 16404.749918550246, -3173.5453812534074, 15277.193817757825, 7754.4683521352235, -187500.02235174447, -187500.02235174447, -0.182, -0.768, -0.628, 192.0, 0.0, 0.0, 0.0, 0.0, 0.0, 0.0, 0.0, 0.0, 0.0, 1.677615293616214E9, 0.0, 2023-02-28 12:14:53.616
100.0, 27038.659398395946, -4272.401842165214, 15950.428360751674, -3161.00605261398, 15046.16618706777, 7488.52729660598, -187500.02235174447, -187500.02235174447, -0.182, -0.768, -0.628, 192.0, 0.0, 0.0, 0.0, 0.0, 0.0, 0.0, 0.0, 0.0, 0.0, 1.6776152936202087E9, 0.0, 2023-02-28 12:14:53.620
101.0, 26937.830679158054, -4269.22789445256, 15223.72844502073, -3155.3287095223322, 14665.203054571517, 7233.248023181918, -187500.02235174447, -187500.02235174447, -0.182, -0.768, -0.628, 192.0, 0.0, 0.0, 0.0, 0.0, 0.0, 0.0, 0.0, 0.0, 0.0, 1.6776152936241324E9, 0.0, 2023-02-28 12:14:53.624
102.0, 26992.033659462173, -4272.245379954026, 15568.951138132947, -3164.783497426927, 14838.02674269995, 7464.901502716721, -187500.02235174447, -187500.02235174447, -0.182, -0.768, -0.628, 192.0, 0.0, 0.0, 0.0, 0.0, 0.0, 0.0, 0.0, 0.0, 0.0, 1.6776152936281445E9, 0.0, 2023-02-28 12:14:53.628
103.0, 27116.42111735596, -4271.619531109278, 16347.685914955846, -3170.5055440074857, 15247.935384265827, 7751.0038317446515, -187500.02235174447, -187500.02235174447, -0.182, -0.768, -0.628, 192.0, 0.0, 0.0, 0.0, 0.0, 0.0, 0.0, 0.0, 0.0, 0.0, 1.677615293632162E9, 0.0, 2023-02-28 12:14:53.632
104.0, 27070.488282500304, -4269.429060152657, 16088.360975785374, -3161.050756102891, 15120.75395831513, 7550.441628747181, -187500.02235174447, -187500.02235174447, -0.178, -0.768, -0.634, 192.0, 250.0, 112.0, 232.0, 0.0, 236.0, 48.0, 0.0, 0.0, 0.0, 1.6776152936361864E9, 0.0, 2023-02-28 12:14:53.636
105.0, 26922.81030688409, -4273.206504965604, 15282.580588171553, -3154.524046721941, 14699.24476137695, 7242.546348875327, -187500.02235174447, -187500.02235174447, -0.178, -0.768, -0.634, 192.0, 0.0, 0.0, 0.0, 0.0, 0.0, 0.0, 0.0, 0.0, 0.0, 1.6776152936411576E9, 0.0, 2023-02-28 12:14:53.641
106.0, 26949.632400230457, -4274.681720099655, 15431.599668455085, -3163.0177096149578, 14772.178503534617, 7398.025083306442, -187500.02235174447, -187500.02235174447, -0.178, -0.768, -0.634, 192.0, 0.0, 0.0, 0.0, 0.0, 0.0, 0.0, 0.0, 0.0, 0.0, 1.6776152936441405E9, 0.0, 2023-02-28 12:14:53.644
107.0, 27089.174340864938, -4269.160839219194, 16257.206053400763, -3169.3432532958095, 15204.416537811345, 7731.714276279721, -187500.02235174447, -187500.02235174447, -0.178, -0.768, -0.634, 192.0, 0.0, 0.0, 0.0, 0.0, 0.0, 0.0, 0.0, 0.0, 0.0, 1.6776152936482024E9, 0.0, 2023-02-28 12:14:53.648
108.0, 27098.07033515815, -4265.3610426617915, 16213.01665461262, -3161.5201427364523, 15186.177514335814, 7618.7485598026, -187500.02235174447, -187500.02235174447, -0.178, -0.768, -0.634, 192.0, 0.0, 0.0, 0.0, 0.0, 0.0, 0.0, 0.0, 0.0, 0.0, 1.6776152936522427E9, 0.0, 2023-02-28 12:14:53.652
109.0, 26961.47882479177, -4264.936359517141, 15384.683356843396, -3152.266520531955, 14752.77718934741, 7278.577360937281, -187500.02235174447, -187500.02235174447, -0.178, -0.768, -0.634, 192.0, 0.0, 0.0, 0.0, 0.0, 0.0, 0.0, 0.0, 0.0, 0.0, 1.677615293656208E9, 0.0, 2023-02-28 12:14:53.656
110.0, 26942.591600727035, -4264.958711261596, 15320.757367701217, -3159.2402648020106, 14712.991084216963, 7342.257480890451, -187500.02235174447, -187500.02235174447, -0.178, -0.768, -0.634, 192.0, 0.0, 0.0, 0.0, 0.0, 0.0, 0.0, 0.0, 0.0, 0.0, 1.6776152936601803E9, 0.0, 2023-02-28 12:14:53.660
111.0, 27083.295832073192, -4265.472801384068, 16136.417226364283, -3169.2985498068992, 15139.842348079963, 7694.6550839728225, -187500.02235174447, -187500.02235174447, -0.178, -0.768, -0.634, 192.0, 0.0, 0.0, 0.0, 0.0, 0.0, 0.0, 0.0, 0.0, 0.0, 1.6776152936641805E9, 0.0, 2023-02-28 12:14:53.664
112.0, 27124.93713199343, -4264.578731605856, 16312.191344760819, -3164.29175904891, 15237.4971196052, 7673.487981973646, -187500.02235174447, -187500.02235174447, -0.178, -0.768, -0.634, 192.0, 0.0, 0.0, 0.0, 0.0, 0.0, 0.0, 0.0, 0.0, 0.0, 1.6776152936692004E9, 0.0, 2023-02-28 12:14:53.669
113.0, 27009.579778859592, -4266.433926395646, 15516.268076451788, -3154.9263781221366, 14818.893649446209, 7319.078721890298, -187500.02235174447, -187500.02235174447, -0.178, -0.768, -0.634, 192.0, 0.0, 0.0, 0.0, 0.0, 0.0, 0.0, 0.0, 0.0, 0.0, 1.6776152936722631E9, 0.0, 2023-02-28 12:14:53.672
114.0, 26953.63336248796, -4269.764336319487, 15241.855709773983, -3159.173209568645, 14668.980499384465, 7294.268285544907, -187500.02235174447, -187500.02235174447, -0.176, -0.764, -0.63, 192.0, 250.0, 128.0, 232.0, 32.0, 236.0, 80.0, 0.0, 0.0, 0.0, 1.6776152936762335E9, 0.0, 2023-02-28 12:14:53.676
115.0, 27045.07434905462, -4267.149182218216, 15994.506000817539, -3169.8573434182817, 15060.113675607881, 7642.8213885809655, -187500.02235174447, -187500.02235174447, -0.176, -0.764, -0.63, 192.0, 0.0, 0.0, 0.0, 0.0, 0.0, 0.0, 0.0, 0.0, 0.0, 1.677615293680204E9, 0.0, 2023-02-28 12:14:53.680
116.0, 27087.967346664354, -4264.623435094766, 16378.687784515356, -3168.493887006508, 15264.87800656295, 7720.426645329791, -187500.02235174447, -187500.02235174447, -0.176, -0.764, -0.63, 192.0, 0.0, 0.0, 0.0, 0.0, 0.0, 0.0, 0.0, 0.0, 0.0, 1.6776152936843524E9, 0.0, 2023-02-28 12:14:53.684
117.0, 26975.403961587428, -4263.036461238439, 15666.538854424818, -3158.1226775792456, 14896.029519561473, 7374.846324306289, -187500.02235174447, -187500.02235174447, -0.176, -0.764, -0.63, 192.0, 0.0, 0.0, 0.0, 0.0, 0.0, 0.0, 0.0, 0.0, 0.0, 1.6776152936883025E9, 0.0, 2023-02-28 12:14:53.688
118.0, 26935.7072634348, -4264.288158927937, 15202.069604643537, -3159.9555206245805, 14646.382885740148, 7256.516189159893, -187500.02235174447, -187500.02235174447, -0.176, -0.764, -0.63, 192.0, 0.0, 0.0, 0.0, 0.0, 0.0, 0.0, 0.0, 0.0, 0.0, 1.6776152936922057E9, 0.0, 2023-02-28 12:14:53.692
119.0, 27068.141349332494, -4268.400879907713, 15842.871766432736, -3171.9584073970805, 14974.506494344056, 7579.923579683731, -187500.02235174447, -187500.02235174447, -0.176, -0.764, -0.63, 192.0, 0.0, 0.0, 0.0, 0.0, 0.0, 0.0, 0.0, 0.0, 0.0, 1.6776152936972468E9, 0.0, 2023-02-28 12:14:53.697
120.0, 27149.90403055001, -4266.858609540297, 16407.074499973598, -3171.8690004192595, 15277.484390435744, 7751.204997444749, -187500.02235174447, -187500.02235174447, -0.176, -0.764, -0.63, 192.0, 0.0, 0.0, 0.0, 0.0, 0.0, 0.0, 0.0, 0.0, 0.0, 1.6776152937002692E9, 0.0, 2023-02-28 12:14:53.700
121.0, 27023.415508677426, -4258.990795492029, 15822.37521676722, -3158.457953746075, 14977.412221123246, 7443.421476295171, -187500.02235174447, -187500.02235174447, -0.176, -0.764, -0.63, 192.0, 0.0, 0.0, 0.0, 0.0, 0.0, 0.0, 0.0, 0.0, 0.0, 1.6776152937042725E9, 0.0, 2023-02-28 12:14:53.704
122.0, 26926.766565652677, -4252.419382622169, 15195.699357473775, -3154.81461939986, 14647.344010751727, 7242.144017475131, -187500.02235174447, -187500.02235174447, -0.176, -0.764, -0.63, 192.0, 0.0, 0.0, 0.0, 0.0, 0.0, 0.0, 0.0, 0.0, 0.0, 1.6776152937082658E9, 0.0, 2023-02-28 12:14:53.708
123.0, 27026.365938945528, -4252.17351343316, 15684.621415689162, -3164.0235381154466, 14898.085880051362, 7519.640924887768, -187500.02235174447, -187500.02235174447, -0.176, -0.764, -0.63, 192.0, 0.0, 0.0, 0.0, 0.0, 0.0, 0.0, 0.0, 0.0, 0.0, 1.6776152937122667E9, 0.0, 2023-02-28 12:14:53.712
124.0, 27146.595972370622, -4250.251263410004, 16389.215456153805, -3166.9516166390918, 15270.912977565882, 7766.985329030196, -187500.02235174447, -187500.02235174447, -0.18, -0.764, -0.632, 192.0, 250.0, 96.0, 232.0, 32.0, 236.0, 64.0, 0.0, 0.0, 0.0, 1.6776152937163293E9, 0.0, 2023-02-28 12:14:53.716
125.0, 27073.371657535037, -4246.719687786065, 15975.551721519438, -3155.7980961558937, 15059.845454674418, 7514.634134129779, -187500.02235174447, -187500.02235174447, -0.18, -0.764, -0.632, 192.0, 0.0, 0.0, 0.0, 0.0, 0.0, 0.0, 0.0, 0.0, 0.0, 1.6776152937203472E9, 0.0, 2023-02-28 12:14:53.720
126.0, 26953.38749329895, -4246.160894174683, 15227.77411076714, -3150.008994341969, 14668.958147640009, 7243.842750053734, -187500.02235174447, -187500.02235174447, -0.18, -0.764, -0.632, 192.0, 0.0, 0.0, 0.0, 0.0, 0.0, 0.0, 0.0, 0.0, 0.0, 1.6776152937252772E9, 0.0, 2023-02-28 12:14:53.725
127.0, 27026.477697667804, -4245.155065674194, 15531.444910936942, -3158.6144159572623, 14823.74397799301, 7457.368964835283, -187500.02235174447, -187500.02235174447, -0.18, -0.764, -0.632, 192.0, 0.0, 0.0, 0.0, 0.0, 0.0, 0.0, 0.0, 0.0, 0.0, 1.677615293728334E9, 0.0, 2023-02-28 12:14:53.728
128.0, 27145.14310898103, -4243.478684840046, 16327.010551334686, -3165.0293666159355, 15241.11810220696, 7760.9280062828075, -187500.02235174447, -187500.02235174447, -0.18, -0.764, -0.632, 192.0, 0.0, 0.0, 0.0, 0.0, 0.0, 0.0, 0.0, 0.0, 0.0, 1.6776152937323267E9, 0.0, 2023-02-28 12:14:53.732
129.0, 27089.822541454145, -4238.829521993342, 16114.288999353528, -3154.8593228887707, 15137.964801545717, 7584.818611719444, -187500.02235174447, -187500.02235174447, -0.18, -0.764, -0.632, 192.0, 0.0, 0.0, 0.0, 0.0, 0.0, 0.0, 0.0, 0.0, 0.0, 1.677615293736291E9, 0.0, 2023-02-28 12:14:53.736
130.0, 26984.925804725386, -4235.879091725242, 15300.327873269067, -3146.745639651494, 14717.640247063668, 7262.618215396192, -187500.02235174447, -187500.02235174447, -0.18, -0.764, -0.632, 192.0, 0.0, 0.0, 0.0, 0.0, 0.0, 0.0, 0.0, 0.0, 0.0, 1.6776152937403252E9, 0.0, 2023-02-28 12:14:53.740
131.0, 27032.266799481728, -4234.180359146638, 15403.257656485755, -3154.524046721941, 14769.451590711069, 7393.8453070933, -187500.02235174447, -187500.02235174447, -0.18, -0.764, -0.632, 192.0, 0.0, 0.0, 0.0, 0.0, 0.0, 0.0, 0.0, 0.0, 0.0, 1.6776152937443953E9, 0.0, 2023-02-28 12:14:53.744
132.0, 27151.9603910399, -4235.812036491876, 16231.389788554883, -3164.0905933488125, 15201.510811032154, 7735.670535048311, -187500.02235174447, -187500.02235174447, -0.18, -0.764, -0.632, 192.0, 0.0, 0.0, 0.0, 0.0, 0.0, 0.0, 0.0, 0.0, 0.0, 1.6776152937483757E9, 0.0, 2023-02-28 12:14:53.748
133.0, 27115.5493993222, -4240.50590282749, 16238.274125847118, -3158.5697124683516, 15206.092918645492, 7647.55995840549, -187500.02235174447, -187500.02235174447, -0.18, -0.764, -0.632, 192.0, 0.0, 0.0, 0.0, 0.0, 0.0, 0.0, 0.0, 0.0, 0.0, 1.6776152937523775E9, 0.0, 2023-02-28 12:14:53.752
134.0, 26985.6187088035, -4241.3552691167915, 15413.226534512823, -3149.9866425975138, 14773.743125646488, 7297.285771046373, -187500.02235174447, -187500.02235174447, -0.176, -0.762, -0.632, 192.0, 250.0, 128.0, 232.0, 48.0, 236.0, 64.0, 0.0, 0.0, 0.0, 1.6776152937563272E9, 0.0, 2023-02-28 12:14:53.756
135.0, 27001.68961306687, -4241.891710983719, 15301.445460491832, -3155.820447900349, 14711.225296404995, 7341.944556468076, -187500.02235174447, -187500.02235174447, -0.176, -0.762, -0.632, 192.0, 0.0, 0.0, 0.0, 0.0, 0.0, 0.0, 0.0, 0.0, 0.0, 1.67761529375945E9, 0.0, 2023-02-28 12:14:53.759
136.0, 27118.678643545943, -4238.471894082057, 16106.085909138432, -3164.6717387046506, 15131.773368331596, 7697.113775862906, -187500.02235174447, -187500.02235174447, -0.176, -0.762, -0.632, 192.0, 0.0, 0.0, 0.0, 0.0, 0.0, 0.0, 0.0, 0.0, 0.0, 1.677615293764392E9, 0.0, 2023-02-28 12:14:53.764
137.0, 27129.89921926251, -4235.834388236331, 16329.826871136054, -3159.8437619023043, 15253.076285490548, 7703.7522439661325, -187500.02235174447, -187500.02235174447, -0.176, -0.762, -0.632, 192.0, 0.0, 0.0, 0.0, 0.0, 0.0, 0.0, 0.0, 0.0, 0.0, 1.6776152937683327E9, 0.0, 2023-02-28 12:14:53.768
138.0, 27002.002537489243, -4233.21923413506, 15547.851091367138, -3149.5172559639523, 14846.453350359601, 7352.338117639794, -187500.02235174447, -187500.02235174447, -0.176, -0.762, -0.632, 192.0, 0.0, 0.0, 0.0, 0.0, 0.0, 0.0, 0.0, 0.0, 0.0, 1.6776152937723932E9, 0.0, 2023-02-28 12:14:53.772
139.0, 26962.037618403152, -4238.293080126415, 15230.948058479795, -3153.138238565712, 14675.753077954421, 7303.857183916233, -187500.02235174447, -187500.02235174447, -0.176, -0.762, -0.632, 192.0, 0.0, 0.0, 0.0, 0.0, 0.0, 0.0, 0.0, 0.0, 0.0, 1.6776152937763498E9, 0.0, 2023-02-28 12:14:53.776
140.0, 27089.21904435385, -4242.964594717574, 15961.20190157913, -3164.62703521574, 15053.02817261555, 7649.973946806664, -187500.02235174447, -187500.02235174447, -0.176, -0.762, -0.632, 192.0, 0.0, 0.0, 0.0, 0.0, 0.0, 0.0, 0.0, 0.0, 0.0, 1.6776152937803817E9, 0.0, 2023-02-28 12:14:53.780
141.0, 27149.881678805552, -4244.0598301958835, 16388.209627653316, -3163.4200410151534, 15282.357070727001, 7748.34397415447, -187500.02235174447, -187500.02235174447, -0.176, -0.762, -0.632, 192.0, 0.0, 0.0, 0.0, 0.0, 0.0, 0.0, 0.0, 0.0, 0.0, 1.6776152937833924E9, 0.0, 2023-02-28 12:14:53.783
142.0, 27034.323159971616, -4243.948071473607, 15700.334692041242, -3152.9594246100696, 14925.869098409308, 7410.027970078942, -187500.02235174447, -187500.02235174447, -0.176, -0.762, -0.632, 192.0, 0.0, 0.0, 0.0, 0.0, 0.0, 0.0, 0.0, 0.0, 0.0, 1.6776152937874568E9, 0.0, 2023-02-28 12:14:53.787
143.0, 26953.655714232413, -4246.473818597057, 15196.81694469654, -3153.585273454818, 14654.89890037762, 7272.989424823454, -187500.02235174447, -187500.02235174447, -0.176, -0.762, -0.632, 192.0, 0.0, 0.0, 0.0, 0.0, 0.0, 0.0, 0.0, 0.0, 0.0, 1.677615293791417E9, 0.0, 2023-02-28 12:14:53.791
144.0, 27058.507747472257, -4248.798400020409, 15810.573495694816, -3164.783497426927, 14969.209130908148, 7587.254951865072, -187500.02235174447, -187500.02235174447, -0.176, -0.762, -0.632, 192.0, 0.0, 0.0, 0.0, 0.0, 0.0, 0.0, 0.0, 0.0, 0.0, 1.6776152937964444E9, 0.0, 2023-02-28 12:14:53.796
