%OpenBCI Raw EEG Data
%Number of channels = 8
%Sample Rate = 250 Hz
%Board = OpenBCI_GUI$BoardCytonSerial
Sample Index, EXG Channel 0, EXG Channel 1, EXG Channel 2, EXG Channel 3, EXG Channel 4, EXG Channel 5, EXG Channel 6, EXG Channel 7, Accel Channel 0, Accel Channel 1, Accel Channel 2, Other, Other, Other, Other, Other, Other, Other, Analog Channel 0, Analog Channel 1, Analog Channel 2, Timestamp, Other, Timestamp (Formatted)
14.0, 24750.824242928535, -4277.967426534585, 16020.188155196687, -3157.8768083902373, 15416.422833969931, 7988.357006115557, -187500.02235174447, -187500.02235174447, 0.0, 0.0, 0.0, 192.0, 0.0, 0.0, 0.0, 0.0, 0.0, 0.0, 0.0, 0.0, 0.0, 1.677615186376062E9, 0.0, 2023-02-28 12:13:06.376
15.0, 24638.73024448517, -4284.963522549096, 15517.743291585839, -3148.936110608114, 15212.038482670605, 7695.660912473311, -187500.02235174447, -187500.02235174447, 0.0, 0.0, 0.0, 192.0, 0.0, 0.0, 0.0, 0.0, 0.0, 0.0, 0.0, 0.0, 0.0, 1.6776151863760924E9, 0.0, 2023-02-28 12:13:06.376
16.0, 24541.231935171123, -4287.243400483537, 14903.874981865285, -3146.8350466293155, 14902.936208598163, 7483.878133759276, -187500.02235174447, -187500.02235174447, 0.0, 0.0, 0.0, 192.0, 0.0, 0.0, 0.0, 0.0, 0.0, 0.0, 0.0, 0.0, 0.0, 1.677615186376109E9, 0.0, 2023-02-28 12:13:06.376
17.0, 24617.518438997085, -4295.714711632098, 15306.049919849625, -3159.061450846368, 15097.105812681415, 7727.6239070444, -187500.02235174447, -187500.02235174447, 0.0, 0.0, 0.0, 192.0, 0.0, 0.0, 0.0, 0.0, 0.0, 0.0, 0.0, 0.0, 0.0, 1.6776151863761249E9, 0.0, 2023-02-28 12:13:06.376
0.0, 0.0, 0.0, 0.0, 0.0, 0.0, 0.0, 0.0, 0.0, -0.154, -0.768, -0.628, 192.0, 251.0, 48.0, 232.0, 0.0, 236.0, 96.0, 0.0, 0.0, 0.0, 1.6776151864853032E9, 0.0, 2023-02-28 12:13:06.485
1.0, 26818.137087599887, -4344.642680244766, 15121.580972859976, -3153.495866476997, 14911.049891835439, 7618.636801080323, -187500.02235174447, -187500.02235174447, -0.154, -0.768, -0.628, 192.0, 0.0, 0.0, 0.0, 0.0, 0.0, 0.0, 0.0, 0.0, 0.0, 1.677615186502272E9, 0.0, 2023-02-28 12:13:06.502
2.0, 26941.250496059718, -4349.917691936218, 15876.645252304705, -3164.336462537821, 15292.661224920897, 7967.256959349747, -187500.02235174447, -187500.02235174447, -0.154, -0.768, -0.628, 192.0, 0.0, 0.0, 0.0, 0.0, 0.0, 0.0, 0.0, 0.0, 0.0, 1.6776151865052807E9, 0.0, 2023-02-28 12:13:06.505
3.0, 26975.29220286515, -4350.655299503243, 16229.35577980945, -3163.0177096149578, 15469.597634029107, 8034.312192715668, -187500.02235174447, -187500.02235174447, -0.154, -0.768, -0.628, 192.0, 0.0, 0.0, 0.0, 0.0, 0.0, 0.0, 0.0, 0.0, 0.0, 1.67761518650926E9, 0.0, 2023-02-28 12:13:06.509
4.0, 26847.864907725445, -4348.889511691274, 15511.820079305182, -3152.110058320768, 15112.014426233105, 7692.866944416398, -187500.02235174447, -187500.02235174447, -0.154, -0.768, -0.628, 192.0, 0.0, 0.0, 0.0, 0.0, 0.0, 0.0, 0.0, 0.0, 0.0, 1.6776151865122232E9, 0.0, 2023-02-28 12:13:06.512
5.0, 26790.935014597777, -4352.085811148383, 15074.284681592546, -3153.6076251992736, 14894.33078698287, 7577.531943027013, -187500.02235174447, -187500.02235174447, -0.154, -0.768, -0.628, 192.0, 0.0, 0.0, 0.0, 0.0, 0.0, 0.0, 0.0, 0.0, 0.0, 1.6776151865162945E9, 0.0, 2023-02-28 12:13:06.516
6.0, 26910.09216428902, -4352.085811148383, 15725.502756297918, -3163.6659102041617, 15223.616686298454, 7900.894630061941, -187500.02235174447, -187500.02235174447, -0.154, -0.768, -0.628, 192.0, 0.0, 0.0, 0.0, 0.0, 0.0, 0.0, 0.0, 0.0, 0.0, 1.6776151865203364E9, 0.0, 2023-02-28 12:13:06.520
7.0, 26981.438932590358, -4349.962395425128, 16255.350858610971, -3163.040061359413, 15496.442079119932, 8054.898149359006, -187500.02235174447, -187500.02235174447, -0.154, -0.768, -0.628, 192.0, 0.0, 0.0, 0.0, 0.0, 0.0, 0.0, 0.0, 0.0, 0.0, 1.677615186524279E9, 0.0, 2023-02-28 12:13:06.524
8.0, 26872.809454537568, -4347.570758768411, 15661.755581111382, -3151.90889262067, 15195.587598751497, 7744.633584574889, -187500.02235174447, -187500.02235174447, -0.166, -0.766, -0.628, 192.0, 250.0, 208.0, 232.0, 16.0, 236.0, 96.0, 0.0, 0.0, 0.0, 1.6776151865292869E9, 0.0, 2023-02-28 12:13:06.529
9.0, 26791.15853204233, -4346.76609596802, 15067.825027444964, -3149.494904219497, 14882.372603699281, 7560.119934096329, -187500.02235174447, -187500.02235174447, -0.166, -0.766, -0.628, 192.0, 0.0, 0.0, 0.0, 0.0, 0.0, 0.0, 0.0, 0.0, 0.0, 1.6776151865322788E9, 0.0, 2023-02-28 12:13:06.532
10.0, 26883.65005059839, -4351.325851836902, 15574.539074246773, -3160.9613491250693, 15134.321467199501, 7840.589623521522, -187500.02235174447, -187500.02235174447, -0.166, -0.766, -0.628, 192.0, 0.0, 0.0, 0.0, 0.0, 0.0, 0.0, 0.0, 0.0, 0.0, 1.6776151865353112E9, 0.0, 2023-02-28 12:13:06.535
11.0, 26983.33883086906, -4349.805933213942, 16245.806663728556, -3163.844724159804, 15481.622872546062, 8073.293635045724, -187500.02235174447, -187500.02235174447, -0.166, -0.766, -0.628, 192.0, 0.0, 0.0, 0.0, 0.0, 0.0, 0.0, 0.0, 0.0, 0.0, 1.677615186540288E9, 0.0, 2023-02-28 12:13:06.540
12.0, 26899.229216483738, -4348.062497146428, 15816.22848704201, -3154.09936357729, 15274.980995056749, 7816.9861813767175, -187500.02235174447, -187500.02235174447, -0.166, -0.766, -0.628, 192.0, 0.0, 0.0, 0.0, 0.0, 0.0, 0.0, 0.0, 0.0, 0.0, 1.6776151865442371E9, 0.0, 2023-02-28 12:13:06.544
13.0, 26795.092439066466, -4346.788447712475, 15101.643216805842, -3149.9642908530586, 14904.61258943231, 7560.678727707712, -187500.02235174447, -187500.02235174447, -0.166, -0.766, -0.628, 192.0, 0.0, 0.0, 0.0, 0.0, 0.0, 0.0, 0.0, 0.0, 0.0, 1.677615186548355E9, 0.0, 2023-02-28 12:13:06.548
14.0, 26870.708390558768, -4346.989613412573, 15428.381017253521, -3159.083802590824, 15065.969832655173, 7772.8414860774865, -187500.02235174447, -187500.02235174447, -0.166, -0.766, -0.628, 192.0, 0.0, 0.0, 0.0, 0.0, 0.0, 0.0, 0.0, 0.0, 0.0, 1.677615186552317E9, 0.0, 2023-02-28 12:13:06.552
15.0, 26989.86554025001, -4347.168427368215, 16196.990453838165, -3164.4258695156423, 15455.91836642246, 8066.297539031213, -187500.02235174447, -187500.02235174447, -0.166, -0.766, -0.628, 192.0, 0.0, 0.0, 0.0, 0.0, 0.0, 0.0, 0.0, 0.0, 0.0, 1.6776151865563192E9, 0.0, 2023-02-28 12:13:06.556
16.0, 26927.772394153166, -4346.564930267922, 15961.559529490416, -3155.6639856891616, 15349.836987237572, 7885.784850810153, -187500.02235174447, -187500.02235174447, -0.166, -0.766, -0.628, 192.0, 0.0, 0.0, 0.0, 0.0, 0.0, 0.0, 0.0, 0.0, 0.0, 1.6776151865602708E9, 0.0, 2023-02-28 12:13:06.560
17.0, 26805.910683382834, -4345.1344186227825, 15168.676098427308, -3149.941939108603, 14939.749531716054, 7576.816687204443, -187500.02235174447, -187500.02235174447, -0.166, -0.766, -0.628, 192.0, 0.0, 0.0, 0.0, 0.0, 0.0, 0.0, 0.0, 0.0, 0.0, 1.6776151865633729E9, 0.0, 2023-02-28 12:13:06.563
18.0, 26843.0369309231, -4348.375421568802, 15295.499896466721, -3158.7708781684496, 14999.741613834098, 7715.8445377164535, -187500.02235174447, -187500.02235174447, -0.17200000000000001, -0.766, -0.622, 192.0, 250.0, 160.0, 232.0, 16.0, 236.0, 144.0, 0.0, 0.0, 0.0, 1.6776151865683672E9, 0.0, 2023-02-28 12:13:06.568
19.0, 26978.19792964434, -4347.0119651570285, 16108.9022289398, -3166.504581749986, 15416.914572347949, 8046.739762632819, -187500.02235174447, -187500.02235174447, -0.17200000000000001, -0.766, -0.622, 192.0, 0.0, 0.0, 0.0, 0.0, 0.0, 0.0, 0.0, 0.0, 0.0, 1.6776151865733228E9, 0.0, 2023-02-28 12:13:06.573
20.0, 26960.13772012445, -4341.468732532112, 16083.287129794018, -3159.3520235242872, 15410.678435644919, 7944.279366049692, -187500.02235174447, -187500.02235174447, -0.17200000000000001, -0.766, -0.622, 192.0, 0.0, 0.0, 0.0, 0.0, 0.0, 0.0, 0.0, 0.0, 0.0, 1.6776151865762918E9, 0.0, 2023-02-28 12:13:06.576
21.0, 26829.06709063853, -4338.0936191193605, 15269.728335109752, -3150.858360631271, 14989.72803231812, 7605.65043755179, -187500.02235174447, -187500.02235174447, -0.17200000000000001, -0.766, -0.622, 192.0, 0.0, 0.0, 0.0, 0.0, 0.0, 0.0, 0.0, 0.0, 0.0, 1.6776151865803308E9, 0.0, 2023-02-28 12:13:06.580
22.0, 26837.717215742734, -4336.95368015214, 15189.865552170939, -3154.501694977486, 14937.492005526068, 7668.436487726747, -187500.02235174447, -187500.02235174447, -0.17200000000000001, -0.766, -0.622, 192.0, 0.0, 0.0, 0.0, 0.0, 0.0, 0.0, 0.0, 0.0, 0.0, 1.677615186584319E9, 0.0, 2023-02-28 12:13:06.584
23.0, 26970.799502229635, -4338.518302264011, 15993.746041506058, -3163.1294683372344, 15347.17712964739, 8017.190756462903, -187500.02235174447, -187500.02235174447, -0.17200000000000001, -0.766, -0.622, 192.0, 0.0, 0.0, 0.0, 0.0, 0.0, 0.0, 0.0, 0.0, 0.0, 1.6776151865874372E9, 0.0, 2023-02-28 12:13:06.587
24.0, 26974.666354020403, -4339.881758675785, 16178.05852628452, -3159.2179130575555, 15456.253642589289, 8002.952695244872, -187500.02235174447, -187500.02235174447, -0.17200000000000001, -0.766, -0.622, 192.0, 0.0, 0.0, 0.0, 0.0, 0.0, 0.0, 0.0, 0.0, 0.0, 1.6776151865913372E9, 0.0, 2023-02-28 12:13:06.591
25.0, 26850.88239322691, -4337.780694696987, 15394.451069170365, -3149.3831454972205, 15059.443123274223, 7647.783475850043, -187500.02235174447, -187500.02235174447, -0.17200000000000001, -0.766, -0.622, 192.0, 0.0, 0.0, 0.0, 0.0, 0.0, 0.0, 0.0, 0.0, 0.0, 1.6776151865964274E9, 0.0, 2023-02-28 12:13:06.596
26.0, 26826.92132317082, -4341.625194743299, 15114.316655912002, -3154.3899362552092, 14904.299665009936, 7611.730112043633, -187500.02235174447, -187500.02235174447, -0.17200000000000001, -0.766, -0.622, 192.0, 0.0, 0.0, 0.0, 0.0, 0.0, 0.0, 0.0, 0.0, 0.0, 1.6776151866004138E9, 0.0, 2023-02-28 12:13:06.600
27.0, 26948.894792663432, -4347.928386679696, 15855.969888683545, -3166.10225034979, 15283.653471905409, 7956.14814235546, -187500.02235174447, -187500.02235174447, -0.17200000000000001, -0.766, -0.622, 192.0, 0.0, 0.0, 0.0, 0.0, 0.0, 0.0, 0.0, 0.0, 0.0, 1.6776151866043737E9, 0.0, 2023-02-28 12:13:06.604
28.0, 26987.47390359329, -4346.2520058455475, 16238.385884569394, -3163.3753375262427, 15480.34882311211, 8038.201396250892, -187500.02235174447, -187500.02235174447, -0.18, -0.766, -0.628, 192.0, 250.0, 96.0, 232.0, 16.0, 236.0, 96.0, 0.0, 0.0, 0.0, 1.6776151866083615E9, 0.0, 2023-02-28 12:13:06.608
29.0, 26860.158367175864, -4344.352107566847, 15537.770454617794, -3152.177113554134, 15127.593592118454, 7698.991322397152, -187500.02235174447, -187500.02235174447, -0.18, -0.766, -0.628, 192.0, 0.0, 0.0, 0.0, 0.0, 0.0, 0.0, 0.0, 0.0, 0.0, 1.677615186612352E9, 0.0, 2023-02-28 12:13:06.612
30.0, 26805.955386871745, -4343.972127911106, 15071.31189957999, -3152.177113554134, 14885.457144434113, 7577.330777326915, -187500.02235174447, -187500.02235174447, -0.18, -0.766, -0.628, 192.0, 0.0, 0.0, 0.0, 0.0, 0.0, 0.0, 0.0, 0.0, 0.0, 1.6776151866154113E9, 0.0, 2023-02-28 12:13:06.615
31.0, 26924.106708062496, -4345.089715133871, 15701.742851941926, -3163.241227059511, 15201.220238354235, 7897.474813160278, -187500.02235174447, -187500.02235174447, -0.18, -0.766, -0.628, 192.0, 0.0, 0.0, 0.0, 0.0, 0.0, 0.0, 0.0, 0.0, 0.0, 1.677615186620404E9, 0.0, 2023-02-28 12:13:06.620
32.0, 26996.883988008976, -4346.520226779011, 16257.02723944512, -3165.5434567384073, 15487.836657504638, 8059.569663950166, -187500.02235174447, -187500.02235174447, -0.18, -0.766, -0.628, 192.0, 0.0, 0.0, 0.0, 0.0, 0.0, 0.0, 0.0, 0.0, 0.0, 1.6776151866243913E9, 0.0, 2023-02-28 12:13:06.624
33.0, 26883.247719198196, -4346.520226779011, 15686.029575589846, -3155.6416339447064, 15206.361139578956, 7752.859026534442, -187500.02235174447, -187500.02235174447, -0.18, -0.766, -0.628, 192.0, 0.0, 0.0, 0.0, 0.0, 0.0, 0.0, 0.0, 0.0, 0.0, 1.677615186628355E9, 0.0, 2023-02-28 12:13:06.628
34.0, 26796.36648850042, -4345.492046534067, 15071.513065280089, -3153.585273454818, 14889.748679369532, 7554.35318402686, -187500.02235174447, -187500.02235174447, -0.18, -0.766, -0.628, 192.0, 0.0, 0.0, 0.0, 0.0, 0.0, 0.0, 0.0, 0.0, 0.0, 1.6776151866313765E9, 0.0, 2023-02-28 12:13:06.631
35.0, 26894.8482745705, -4346.363764567825, 15551.293260013255, -3163.8670759042593, 15126.632467106876, 7826.8433006815085, -187500.02235174447, -187500.02235174447, -0.18, -0.766, -0.628, 192.0, 0.0, 0.0, 0.0, 0.0, 0.0, 0.0, 0.0, 0.0, 0.0, 1.6776151866354115E9, 0.0, 2023-02-28 12:13:06.635
36.0, 27003.790677045665, -4345.179122111693, 16241.425721815316, -3167.2868928059215, 15479.588863800629, 8066.521056475766, -187500.02235174447, -187500.02235174447, -0.18, -0.766, -0.628, 192.0, 0.0, 0.0, 0.0, 0.0, 0.0, 0.0, 0.0, 0.0, 0.0, 1.6776151866404457E9, 0.0, 2023-02-28 12:13:06.640
37.0, 26914.160181779884, -4344.5756250114, 15839.898984420179, -3157.407421756676, 15286.425088217866, 7822.283544812625, -187500.02235174447, -187500.02235174447, -0.18, -0.766, -0.628, 192.0, 0.0, 0.0, 0.0, 0.0, 0.0, 0.0, 0.0, 0.0, 0.0, 1.677615186644429E9, 0.0, 2023-02-28 12:13:06.644
38.0, 26810.202218318253, -4342.452209288145, 15107.61113257541, -3151.752430409483, 14906.780708644475, 7557.8847596507985, -187500.02235174447, -187500.02235174447, -0.178, -0.772, -0.63, 192.0, 250.0, 112.0, 231.0, 224.0, 236.0, 80.0, 0.0, 0.0, 0.0, 1.6776151866483967E9, 0.0, 2023-02-28 12:13:06.648
39.0, 26875.536367361114, -4346.721392479109, 15402.184772751902, -3162.0789363478348, 15051.955288881694, 7763.945491784274, -187500.02235174447, -187500.02235174447, -0.178, -0.772, -0.63, 192.0, 0.0, 0.0, 0.0, 0.0, 0.0, 0.0, 0.0, 0.0, 0.0, 1.677615186652475E9, 0.0, 2023-02-28 12:13:06.652
40.0, 26993.039487962662, -4349.962395425128, 16184.227607754185, -3169.4103085291754, 15445.882433162027, 8067.281015787246, -187500.02235174447, -187500.02235174447, -0.178, -0.772, -0.63, 192.0, 0.0, 0.0, 0.0, 0.0, 0.0, 0.0, 0.0, 0.0, 0.0, 1.677615186656389E9, 0.0, 2023-02-28 12:13:06.656
41.0, 26934.09793783402, -4348.062497146428, 15980.200884366142, -3159.9555206245805, 15355.000240206748, 7894.65849335891, -187500.02235174447, -187500.02235174447, -0.178, -0.772, -0.63, 192.0, 0.0, 0.0, 0.0, 0.0, 0.0, 0.0, 0.0, 0.0, 0.0, 1.6776151866594052E9, 0.0, 2023-02-28 12:13:06.659
42.0, 26808.391727017373, -4346.274357590003, 15183.271787556623, -3153.2947007768994, 14947.617345764322, 7575.185009859206, -187500.02235174447, -187500.02235174447, -0.178, -0.772, -0.63, 192.0, 0.0, 0.0, 0.0, 0.0, 0.0, 0.0, 0.0, 0.0, 0.0, 1.6776151866634314E9, 0.0, 2023-02-28 12:13:06.663
43.0, 26848.22253563673, -4344.888549433774, 15277.327928224557, -3160.7601834249717, 14988.342224161892, 7701.450014287236, -187500.02235174447, -187500.02235174447, -0.178, -0.772, -0.63, 192.0, 0.0, 0.0, 0.0, 0.0, 0.0, 0.0, 0.0, 0.0, 0.0, 1.677615186668436E9, 0.0, 2023-02-28 12:13:06.668
44.0, 26976.230976132272, -4345.045011644961, 16094.731222955135, -3168.873866662248, 15408.24209549929, 8042.492931186311, -187500.02235174447, -187500.02235174447, -0.178, -0.772, -0.63, 192.0, 0.0, 0.0, 0.0, 0.0, 0.0, 0.0, 0.0, 0.0, 0.0, 1.6776151866725783E9, 0.0, 2023-02-28 12:13:06.672
45.0, 26953.588658999048, -4342.161636610226, 16101.727318969646, -3160.8942938917035, 15421.38492123901, 7957.757467956241, -187500.02235174447, -187500.02235174447, -0.178, -0.772, -0.63, 192.0, 0.0, 0.0, 0.0, 0.0, 0.0, 0.0, 0.0, 0.0, 0.0, 1.6776151866765008E9, 0.0, 2023-02-28 12:13:06.676
46.0, 26823.523858013614, -4339.792351697964, 15288.950835341317, -3152.4229827431423, 15003.809631324964, 7608.869088753354, -187500.02235174447, -187500.02235174447, -0.178, -0.772, -0.63, 192.0, 0.0, 0.0, 0.0, 0.0, 0.0, 0.0, 0.0, 0.0, 0.0, 1.6776151866793897E9, 0.0, 2023-02-28 12:13:06.679
47.0, 26830.11762262793, -4341.714601721121, 15176.834485153495, -3158.10032583479, 14937.581412503889, 7644.833045581943, -187500.02235174447, -187500.02235174447, -0.178, -0.772, -0.63, 192.0, 0.0, 0.0, 0.0, 0.0, 0.0, 0.0, 0.0, 0.0, 0.0, 1.6776151866835725E9, 0.0, 2023-02-28 12:13:06.683
48.0, 26961.05414164712, -4346.564930267922, 15975.238797097063, -3168.426831773142, 15343.332629601078, 7994.4366806074, -187500.02235174447, -187500.02235174447, -0.184, -0.776, -0.63, 192.0, 250.0, 64.0, 231.0, 192.0, 236.0, 80.0, 0.0, 0.0, 0.0, 1.677615186687514E9, 0.0, 2023-02-28 12:13:06.687
49.0, 26973.504063308726, -4346.900206434751, 16189.524971190092, -3163.3753375262427, 15467.653032261496, 8000.58341033261, -187500.02235174447, -187500.02235174447, -0.184, -0.776, -0.63, 192.0, 0.0, 0.0, 0.0, 0.0, 0.0, 0.0, 0.0, 0.0, 0.0, 1.6776151866915288E9, 0.0, 2023-02-28 12:13:06.691
50.0, 26842.701654756267, -4346.587282012378, 15414.969970580338, -3154.1887705551117, 15075.670489748776, 7654.891330586831, -187500.02235174447, -187500.02235174447, -0.184, -0.776, -0.63, 192.0, 0.0, 0.0, 0.0, 0.0, 0.0, 0.0, 0.0, 0.0, 0.0, 1.6776151866965332E9, 0.0, 2023-02-28 12:13:06.696
51.0, 26811.20804681874, -4345.648508745255, 15103.029024962072, -3157.206256056578, 14909.865249379309, 7607.371521874848, -187500.02235174447, -187500.02235174447, -0.184, -0.776, -0.63, 192.0, 0.0, 0.0, 0.0, 0.0, 0.0, 0.0, 0.0, 0.0, 0.0, 1.6776151867005064E9, 0.0, 2023-02-28 12:13:06.700
52.0, 26938.724748936267, -4345.201473856148, 15831.271211060432, -3167.0186718724576, 15273.68459387834, 7949.263805063225, -187500.02235174447, -187500.02235174447, -0.184, -0.776, -0.63, 192.0, 0.0, 0.0, 0.0, 0.0, 0.0, 0.0, 0.0, 0.0, 0.0, 1.6776151867045572E9, 0.0, 2023-02-28 12:13:06.704
53.0, 26994.425296118894, -4339.680592975687, 16242.431550315805, -3162.905950892681, 15488.171933671467, 8044.124608531548, -187500.02235174447, -187500.02235174447, -0.184, -0.776, -0.63, 192.0, 0.0, 0.0, 0.0, 0.0, 0.0, 0.0, 0.0, 0.0, 0.0, 1.6776151867076216E9, 0.0, 2023-02-28 12:13:06.707
54.0, 26872.518881859647, -4336.014906885017, 15557.730562416384, -3150.7913053979046, 15146.458464438734, 7709.183717868772, -187500.02235174447, -187500.02235174447, -0.184, -0.776, -0.63, 192.0, 0.0, 0.0, 0.0, 0.0, 0.0, 0.0, 0.0, 0.0, 0.0, 1.6776151867115643E9, 0.0, 2023-02-28 12:13:06.711
55.0, 26804.681337437793, -4341.245215087559, 15067.400344300313, -3153.3617560102653, 14894.017862560495, 7569.507666767558, -187500.02235174447, -187500.02235174447, -0.184, -0.776, -0.63, 192.0, 0.0, 0.0, 0.0, 0.0, 0.0, 0.0, 0.0, 0.0, 0.0, 1.6776151867155447E9, 0.0, 2023-02-28 12:13:06.715
56.0, 26916.216542269773, -4348.24131110207, 15678.698203408505, -3166.5716369833517, 15198.918008675339, 7877.157077450404, -187500.02235174447, -187500.02235174447, -0.184, -0.776, -0.63, 192.0, 0.0, 0.0, 0.0, 0.0, 0.0, 0.0, 0.0, 0.0, 0.0, 1.677615186719558E9, 0.0, 2023-02-28 12:13:06.719
57.0, 26992.592453073557, -4351.705831492643, 16258.010716201154, -3168.3150730508655, 15498.386680887543, 8053.512341202777, -187500.02235174447, -187500.02235174447, -0.184, -0.776, -0.63, 192.0, 0.0, 0.0, 0.0, 0.0, 0.0, 0.0, 0.0, 0.0, 0.0, 1.6776151867235324E9, 0.0, 2023-02-28 12:13:06.723
58.0, 26885.57230062155, -4351.079982647894, 15713.209296847499, -3157.787401412416, 15221.336808364013, 7756.457657391747, -187500.02235174447, -187500.02235174447, -0.184, -0.778, -0.634, 192.0, 250.0, 64.0, 231.0, 176.0, 236.0, 48.0, 0.0, 0.0, 0.0, 1.6776151867285247E9, 0.0, 2023-02-28 12:13:06.728
59.0, 26795.226549533196, -4350.789409969975, 15075.98341417115, -3155.1945990556, 14890.128659025271, 7544.585471699891, -187500.02235174447, -187500.02235174447, -0.184, -0.778, -0.634, 192.0, 0.0, 0.0, 0.0, 0.0, 0.0, 0.0, 0.0, 0.0, 0.0, 1.6776151867325873E9, 0.0, 2023-02-28 12:13:06.732
60.0, 26880.766675563656, -4355.326814094403, 15528.44977717993, -3166.214009072067, 15117.781176302575, 7805.922067871341, -187500.02235174447, -187500.02235174447, -0.184, -0.778, -0.634, 192.0, 0.0, 0.0, 0.0, 0.0, 0.0, 0.0, 0.0, 0.0, 0.0, 1.6776151867355642E9, 0.0, 2023-02-28 12:13:06.735
61.0, 26981.550691312637, -4356.422049572712, 16236.664800246335, -3170.48319226303, 15483.455715591397, 8057.893283116017, -187500.02235174447, -187500.02235174447, -0.184, -0.778, -0.634, 192.0, 0.0, 0.0, 0.0, 0.0, 0.0, 0.0, 0.0, 0.0, 0.0, 1.677615186740543E9, 0.0, 2023-02-28 12:13:06.740
62.0, 26906.784106109633, -4353.024584415506, 15867.27987137793, -3160.62607295824, 15299.143230812935, 7824.250498324693, -187500.02235174447, -187500.02235174447, -0.184, -0.778, -0.634, 192.0, 0.0, 0.0, 0.0, 0.0, 0.0, 0.0, 0.0, 0.0, 0.0, 1.6776151867445242E9, 0.0, 2023-02-28 12:13:06.744
63.0, 26800.367450757916, -4346.699040734654, 15119.681074581275, -3153.875846132737, 14916.61547620481, 7554.420239260226, -187500.02235174447, -187500.02235174447, -0.184, -0.778, -0.634, 192.0, 0.0, 0.0, 0.0, 0.0, 0.0, 0.0, 0.0, 0.0, 0.0, 1.67761518674751E9, 0.0, 2023-02-28 12:13:06.747
64.0, 26873.23413768222, -4343.748610466553, 15381.196484708367, -3162.034232858924, 15046.635573701333, 7748.254567176648, -187500.02235174447, -187500.02235174447, -0.184, -0.778, -0.634, 192.0, 0.0, 0.0, 0.0, 0.0, 0.0, 0.0, 0.0, 0.0, 0.0, 1.6776151867525268E9, 0.0, 2023-02-28 12:13:06.752
65.0, 26995.7216972973, -4344.597976755855, 16169.162531991307, -3169.097384106801, 15444.027238372237, 8057.513303460277, -187500.02235174447, -187500.02235174447, -0.184, -0.778, -0.634, 192.0, 0.0, 0.0, 0.0, 0.0, 0.0, 0.0, 0.0, 0.0, 0.0, 1.6776151867565804E9, 0.0, 2023-02-28 12:13:06.756
66.0, 26940.42348151487, -4344.5756250114, 15999.758660764535, -3161.00605261398, 15365.214987422823, 7898.905324805418, -187500.02235174447, -187500.02235174447, -0.184, -0.778, -0.634, 192.0, 0.0, 0.0, 0.0, 0.0, 0.0, 0.0, 0.0, 0.0, 0.0, 1.6776151867615497E9, 0.0, 2023-02-28 12:13:06.761
67.0, 26815.521933498614, -4343.748610466553, 15195.788764451596, -3153.6299769437287, 14950.366610332325, 7574.514457525547, -187500.02235174447, -187500.02235174447, -0.184, -0.778, -0.634, 192.0, 0.0, 0.0, 0.0, 0.0, 0.0, 0.0, 0.0, 0.0, 0.0, 1.6776151867655253E9, 0.0, 2023-02-28 12:13:06.765
68.0, 26845.227401879718, -4346.319061078913, 15255.914957036372, -3159.977872369036, 14977.144000189783, 7685.110889090406, -187500.02235174447, -187500.02235174447, -0.186, -0.774, -0.63, 192.0, 250.0, 48.0, 231.0, 208.0, 236.0, 80.0, 0.0, 0.0, 0.0, 1.6776151867685344E9, 0.0, 2023-02-28 12:13:06.768
69.0, 26972.9676214418, -4348.397773313257, 16070.36782149885, -3167.5998172282957, 15395.255731970756, 8027.003172278783, -187500.02235174447, -187500.02235174447, -0.186, -0.774, -0.63, 192.0, 0.0, 0.0, 0.0, 0.0, 0.0, 0.0, 0.0, 0.0, 0.0, 1.6776151867715156E9, 0.0, 2023-02-28 12:13:06.771
70.0, 26952.314609565095, -4349.895340191762, 16114.020778420065, -3162.1236398367455, 15419.350912493577, 7962.518389525222, -187500.02235174447, -187500.02235174447, -0.186, -0.774, -0.63, 192.0, 0.0, 0.0, 0.0, 0.0, 0.0, 0.0, 0.0, 0.0, 0.0, 1.6776151867756E9, 0.0, 2023-02-28 12:13:06.775
71.0, 26821.556904501547, -4349.157732624738, 15302.585399459052, -3153.3394042658097, 15003.228485969126, 7614.859356267376, -187500.02235174447, -187500.02235174447, -0.186, -0.774, -0.63, 192.0, 0.0, 0.0, 0.0, 0.0, 0.0, 0.0, 0.0, 0.0, 0.0, 1.677615186779506E9, 0.0, 2023-02-28 12:13:06.779
72.0, 26822.898009168865, -4350.1859128696815, 15157.254357010646, -3158.390898512709, 14925.109139097827, 7640.072124012962, -187500.02235174447, -187500.02235174447, -0.186, -0.774, -0.63, 192.0, 0.0, 0.0, 0.0, 0.0, 0.0, 0.0, 0.0, 0.0, 0.0, 1.6776151867844963E9, 0.0, 2023-02-28 12:13:06.784
73.0, 26952.605182243013, -4353.449267560157, 15947.366171761296, -3168.4044800286865, 15337.61058302052, 7989.586352060599, -187500.02235174447, -187500.02235174447, -0.186, -0.774, -0.63, 192.0, 0.0, 0.0, 0.0, 0.0, 0.0, 0.0, 0.0, 0.0, 0.0, 1.6776151867885795E9, 0.0, 2023-02-28 12:13:06.788
74.0, 26972.90056620843, -4349.582415769389, 16194.889389859367, -3163.688261948617, 15468.480046806342, 8010.3958261484895, -187500.02235174447, -187500.02235174447, -0.186, -0.774, -0.63, 192.0, 0.0, 0.0, 0.0, 0.0, 0.0, 0.0, 0.0, 0.0, 0.0, 1.6776151867915316E9, 0.0, 2023-02-28 12:13:06.791
75.0, 26847.97666644772, -4344.3744593113015, 15433.00782835577, -3152.62414844324, 15077.592739771932, 7660.658080656301, -187500.02235174447, -187500.02235174447, -0.186, -0.774, -0.63, 192.0, 0.0, 0.0, 0.0, 0.0, 0.0, 0.0, 0.0, 0.0, 0.0, 1.6776151867956169E9, 0.0, 2023-02-28 12:13:06.795
76.0, 26805.038965349075, -4346.743744223564, 15093.395423101834, -3155.9992618559913, 14897.28121725097, 7592.529963556524, -187500.02235174447, -187500.02235174447, -0.186, -0.774, -0.63, 192.0, 0.0, 0.0, 0.0, 0.0, 0.0, 0.0, 0.0, 0.0, 0.0, 1.6776151868015895E9, 0.0, 2023-02-28 12:13:06.801
77.0, 26926.05130983011, -4350.610596014332, 15807.779527637904, -3167.845686417304, 15258.038372759625, 7929.974249598295, -187500.02235174447, -187500.02235174447, -0.186, -0.774, -0.63, 192.0, 0.0, 0.0, 0.0, 0.0, 0.0, 0.0, 0.0, 0.0, 0.0, 1.677615186804534E9, 0.0, 2023-02-28 12:13:06.804
78.0, 26981.751857012732, -4348.397773313257, 16249.919384708332, -3165.655215460684, 15488.797782516216, 8040.727143374342, -187500.02235174447, -187500.02235174447, -0.18, -0.778, -0.63, 192.0, 250.0, 96.0, 231.0, 176.0, 236.0, 80.0, 0.0, 0.0, 0.0, 1.6776151868076143E9, 0.0, 2023-02-28 12:13:06.807
79.0, 26861.164195676352, -4345.603805256344, 15588.419507553519, -3155.3287095223322, 15147.799569106051, 7713.3187905930035, -187500.02235174447, -187500.02235174447, -0.18, -0.778, -0.63, 192.0, 0.0, 0.0, 0.0, 0.0, 0.0, 0.0, 0.0, 0.0, 0.0, 1.6776151868126209E9, 0.0, 2023-02-28 12:13:06.812
80.0, 26789.035116319075, -4348.330718079891, 15069.903739679306, -3155.2169508000557, 14882.931397310664, 7565.506704510058, -187500.02235174447, -187500.02235174447, -0.18, -0.778, -0.63, 192.0, 0.0, 0.0, 0.0, 0.0, 0.0, 0.0, 0.0, 0.0, 0.0, 1.6776151868166173E9, 0.0, 2023-02-28 12:13:06.816
81.0, 26899.27391997265, -4351.795238470464, 15655.161816497066, -3166.191657327611, 15179.382584021401, 7873.3349291485465, -187500.02235174447, -187500.02235174447, -0.18, -0.778, -0.63, 192.0, 0.0, 0.0, 0.0, 0.0, 0.0, 0.0, 0.0, 0.0, 0.0, 1.677615186819638E9, 0.0, 2023-02-28 12:13:06.819
82.0, 26981.215415145805, -4352.421087315212, 16257.340163867495, -3168.158610839678, 15493.424593618465, 8064.352937263601, -187500.02235174447, -187500.02235174447, -0.18, -0.778, -0.63, 192.0, 0.0, 0.0, 0.0, 0.0, 0.0, 0.0, 0.0, 0.0, 0.0, 1.6776151868236344E9, 0.0, 2023-02-28 12:13:06.823
83.0, 26877.726838317736, -4350.923520436707, 15734.82343373578, -3157.1839043121226, 15229.115215434458, 7778.87645708042, -187500.02235174447, -187500.02235174447, -0.18, -0.778, -0.63, 192.0, 0.0, 0.0, 0.0, 0.0, 0.0, 0.0, 0.0, 0.0, 0.0, 1.67761518682757E9, 0.0, 2023-02-28 12:13:06.827
84.0, 26786.419962217806, -4352.309328592936, 15078.285643850048, -3155.2840060334215, 14889.70397588062, 7553.481465993103, -187500.02235174447, -187500.02235174447, -0.18, -0.778, -0.63, 192.0, 0.0, 0.0, 0.0, 0.0, 0.0, 0.0, 0.0, 0.0, 0.0, 1.6776151868315885E9, 0.0, 2023-02-28 12:13:06.831
85.0, 26876.251623183685, -4354.902130949751, 15502.901733267516, -3166.884561405726, 15099.430394104767, 7807.039655094106, -187500.02235174447, -187500.02235174447, -0.18, -0.778, -0.63, 192.0, 0.0, 0.0, 0.0, 0.0, 0.0, 0.0, 0.0, 0.0, 0.0, 1.6776151868356369E9, 0.0, 2023-02-28 12:13:06.835
86.0, 26987.809179760123, -4356.131476894793, 16228.707579220247, -3172.6736632196503, 15479.164180655978, 8062.4530389849, -187500.02235174447, -187500.02235174447, -0.18, -0.778, -0.63, 192.0, 0.0, 0.0, 0.0, 0.0, 0.0, 0.0, 0.0, 0.0, 0.0, 1.6776151868406513E9, 0.0, 2023-02-28 12:13:06.840
87.0, 26918.161144037385, -4351.616424514821, 15889.922188511156, -3163.330634037332, 15305.3123122826, 7836.476902541745, -187500.02235174447, -187500.02235174447, -0.18, -0.778, -0.63, 192.0, 0.0, 0.0, 0.0, 0.0, 0.0, 0.0, 0.0, 0.0, 0.0, 1.6776151868446312E9, 0.0, 2023-02-28 12:13:06.844
88.0, 26806.380070016396, -4348.62129075781, 15131.438092164766, -3157.6756426901393, 14915.453185493136, 7558.376498028815, -187500.02235174447, -187500.02235174447, -0.186, -0.776, -0.63, 192.0, 250.0, 48.0, 231.0, 192.0, 236.0, 80.0, 0.0, 0.0, 0.0, 1.6776151868475902E9, 0.0, 2023-02-28 12:13:06.847
89.0, 26862.952335232778, -4350.923520436707, 15362.108094943536, -3166.526933494441, 15032.710436905676, 7738.397447871858, -187500.02235174447, -187500.02235174447, -0.186, -0.776, -0.63, 192.0, 0.0, 0.0, 0.0, 0.0, 0.0, 0.0, 0.0, 0.0, 0.0, 1.6776151868516784E9, 0.0, 2023-02-28 12:13:06.851
90.0, 26987.809179760123, -4351.079982647894, 16159.685392342257, -3173.2101050865776, 15441.72500869334, 8052.439457468922, -187500.02235174447, -187500.02235174447, -0.186, -0.776, -0.63, 192.0, 0.0, 0.0, 0.0, 0.0, 0.0, 0.0, 0.0, 0.0, 0.0, 1.6776151868566287E9, 0.0, 2023-02-28 12:13:06.856
91.0, 26947.508984507203, -4347.727220979598, 16022.400977897762, -3164.492924749008, 15374.110981716036, 7911.3105429781135, -187500.02235174447, -187500.02235174447, -0.186, -0.776, -0.63, 192.0, 0.0, 0.0, 0.0, 0.0, 0.0, 0.0, 0.0, 0.0, 0.0, 1.6776151868606644E9, 0.0, 2023-02-28 12:13:06.860
92.0, 26818.15943934434, -4346.967261668117, 15210.607971025465, -3156.6474624451953, 14964.984651206096, 7577.934274427209, -187500.02235174447, -187500.02235174447, -0.186, -0.776, -0.63, 192.0, 0.0, 0.0, 0.0, 0.0, 0.0, 0.0, 0.0, 0.0, 0.0, 1.677615186863633E9, 0.0, 2023-02-28 12:13:06.863
93.0, 26842.478137311715, -4350.074154147405, 15238.525299850144, -3163.53179973743, 14968.717392530132, 7677.935979120252, -187500.02235174447, -187500.02235174447, -0.186, -0.776, -0.63, 192.0, 0.0, 0.0, 0.0, 0.0, 0.0, 0.0, 0.0, 0.0, 0.0, 1.6776151868686774E9, 0.0, 2023-02-28 12:13:06.868
94.0, 26971.268888863193, -4354.790372227475, 16055.928594580722, -3172.7630701974717, 15383.252845198256, 8029.148939746492, -187500.02235174447, -187500.02235174447, -0.186, -0.776, -0.63, 192.0, 0.0, 0.0, 0.0, 0.0, 0.0, 0.0, 0.0, 0.0, 0.0, 1.6776151868717403E9, 0.0, 2023-02-28 12:13:06.871
95.0, 26963.758702726213, -4354.365689082824, 16131.142214672831, -3167.108078850279, 15430.593839954596, 7971.615549518532, -187500.02235174447, -187500.02235174447, -0.186, -0.776, -0.63, 192.0, 0.0, 0.0, 0.0, 0.0, 0.0, 0.0, 0.0, 0.0, 0.0, 1.677615186875705E9, 0.0, 2023-02-28 12:13:06.875
96.0, 26826.250770837163, -4354.38804082728, 15323.886611924961, -3157.452125245586, 15022.83096585643, 7623.420074393759, -187500.02235174447, -187500.02235174447, -0.186, -0.776, -0.63, 192.0, 0.0, 0.0, 0.0, 0.0, 0.0, 0.0, 0.0, 0.0, 0.0, 1.677615186879638E9, 0.0, 2023-02-28 12:13:06.879
97.0, 26817.91357015533, -4356.712622250631, 15146.078484782993, -3162.034232858924, 14926.405540276235, 7632.561937875979, -187500.02235174447, -187500.02235174447, -0.186, -0.776, -0.63, 192.0, 0.0, 0.0, 0.0, 0.0, 0.0, 0.0, 0.0, 0.0, 0.0, 1.677615186883696E9, 0.0, 2023-02-28 12:13:06.883
98.0, 26949.967676397286, -4360.177142641204, 15929.238907008043, -3173.031291130935, 15326.345303815044, 7983.193753146381, -187500.02235174447, -187500.02235174447, -0.188, -0.778, -0.628, 192.0, 250.0, 32.0, 231.0, 176.0, 236.0, 96.0, 0.0, 0.0, 0.0, 1.6776151868876636E9, 0.0, 2023-02-28 12:13:06.887
99.0, 26973.52641505318, -4358.836037973886, 16212.480212745693, -3169.8349916738266, 15470.49170380732, 8018.911840785961, -187500.02235174447, -187500.02235174447, -0.188, -0.778, -0.628, 192.0, 0.0, 0.0, 0.0, 0.0, 0.0, 0.0, 0.0, 0.0, 0.0, 1.6776151868917036E9, 0.0, 2023-02-28 12:13:06.891
100.0, 26845.182698390807, -4357.070250161916, 15463.473256048354, -3159.2626165464662, 15086.578141042966, 7669.308205760504, -187500.02235174447, -187500.02235174447, -0.188, -0.778, -0.628, 192.0, 0.0, 0.0, 0.0, 0.0, 0.0, 0.0, 0.0, 0.0, 0.0, 1.6776151868967268E9, 0.0, 2023-02-28 12:13:06.896
101.0, 26803.675508937304, -4360.802991485953, 15093.50718182411, -3162.5036194924855, 14900.656330663722, 7585.578571030924, -187500.02235174447, -187500.02235174447, -0.188, -0.778, -0.628, 192.0, 0.0, 0.0, 0.0, 0.0, 0.0, 0.0, 0.0, 0.0, 0.0, 1.677615186899776E9, 0.0, 2023-02-28 12:13:06.899
102.0, 26927.638283686436, -4361.428840330701, 15790.054594284844, -3172.360738797276, 15253.769189568662, 7921.592345427555, -187500.02235174447, -187500.02235174447, -0.188, -0.778, -0.628, 192.0, 0.0, 0.0, 0.0, 0.0, 0.0, 0.0, 0.0, 0.0, 0.0, 1.677615186902711E9, 0.0, 2023-02-28 12:13:06.902
103.0, 26986.021040203697, -4357.852561217852, 16259.307117379562, -3170.5502474963964, 15496.531486097752, 8049.9584138343835, -187500.02235174447, -187500.02235174447, -0.188, -0.778, -0.628, 192.0, 0.0, 0.0, 0.0, 0.0, 0.0, 0.0, 0.0, 0.0, 0.0, 1.677615186907678E9, 0.0, 2023-02-28 12:13:06.907
104.0, 26870.8425010255, -4355.550331538955, 15616.560353822751, -3159.396727013198, 15168.944319360771, 7729.590860556467, -187500.02235174447, -187500.02235174447, -0.188, -0.778, -0.628, 192.0, 0.0, 0.0, 0.0, 0.0, 0.0, 0.0, 0.0, 0.0, 0.0, 1.6776151869116948E9, 0.0, 2023-02-28 12:13:06.911
105.0, 26793.572520443504, -4357.249064117559, 15073.055335647505, -3159.1955613131004, 14885.323033967381, 7564.433820776203, -187500.02235174447, -187500.02235174447, -0.188, -0.778, -0.628, 192.0, 0.0, 0.0, 0.0, 0.0, 0.0, 0.0, 0.0, 0.0, 0.0, 1.6776151869157507E9, 0.0, 2023-02-28 12:13:06.915
106.0, 26898.625719383446, -4360.601825785855, 15634.933487765014, -3170.974930641047, 15170.106610072447, 7860.46032434229, -187500.02235174447, -187500.02235174447, -0.188, -0.778, -0.628, 192.0, 0.0, 0.0, 0.0, 0.0, 0.0, 0.0, 0.0, 0.0, 0.0, 1.6776151869196784E9, 0.0, 2023-02-28 12:13:06.919
107.0, 26983.495293080246, -4362.725241509109, 16260.201187157774, -3174.4841545205304, 15495.100974452613, 8061.670727928964, -187500.02235174447, -187500.02235174447, -0.188, -0.778, -0.628, 192.0, 0.0, 0.0, 0.0, 0.0, 0.0, 0.0, 0.0, 0.0, 0.0, 1.677615186923776E9, 0.0, 2023-02-28 12:13:06.923
108.0, 26885.482893643726, -4360.087735663383, 15765.601785850738, -3163.53179973743, 15243.06270397457, 7785.514925183646, -187500.02235174447, -187500.02235174447, -0.184, -0.78, -0.628, 192.0, 250.0, 64.0, 231.0, 160.0, 236.0, 96.0, 0.0, 0.0, 0.0, 1.6776151869287317E9, 0.0, 2023-02-28 12:13:06.928
109.0, 26783.737752883168, -4362.881703720296, 15088.858018977407, -3161.229570058533, 14887.893484579741, 7554.330832282404, -187500.02235174447, -187500.02235174447, -0.184, -0.78, -0.628, 192.0, 0.0, 0.0, 0.0, 0.0, 0.0, 0.0, 0.0, 0.0, 0.0, 1.6776151869316692E9, 0.0, 2023-02-28 12:13:06.931
110.0, 26866.79683527909, -4362.881703720296, 15483.589826058129, -3170.840820174315, 15081.593702029431, 7796.757852644665, -187500.02235174447, -187500.02235174447, -0.184, -0.78, -0.628, 192.0, 0.0, 0.0, 0.0, 0.0, 0.0, 0.0, 0.0, 0.0, 0.0, 1.6776151869357076E9, 0.0, 2023-02-28 12:13:06.935
111.0, 26973.97344994229, -4363.775773498509, 16223.92430590681, -3174.9311894096363, 15469.955261940393, 8069.784411166241, -187500.02235174447, -187500.02235174447, -0.184, -0.78, -0.628, 192.0, 0.0, 0.0, 0.0, 0.0, 0.0, 0.0, 0.0, 0.0, 0.0, 1.6776151869398036E9, 0.0, 2023-02-28 12:13:06.939
112.0, 26909.958053822287, -4359.394831585269, 15915.29141846793, -3164.850552660293, 15319.617428733996, 7855.78880975113, -187500.02235174447, -187500.02235174447, -0.184, -0.78, -0.628, 192.0, 0.0, 0.0, 0.0, 0.0, 0.0, 0.0, 0.0, 0.0, 0.0, 1.6776151869437864E9, 0.0, 2023-02-28 12:13:06.943
113.0, 26798.266386779116, -4356.064421661427, 15144.960897560228, -3158.5697124683516, 14926.629057720787, 7559.069402106929, -187500.02235174447, -187500.02235174447, -0.184, -0.78, -0.628, 192.0, 0.0, 0.0, 0.0, 0.0, 0.0, 0.0, 0.0, 0.0, 0.0, 1.6776151869477656E9, 0.0, 2023-02-28 12:13:06.947
114.0, 26849.854212981965, -4356.265587361525, 15344.226699379291, -3166.526933494441, 15019.455852443678, 7731.155482668339, -187500.02235174447, -187500.02235174447, -0.184, -0.78, -0.628, 192.0, 0.0, 0.0, 0.0, 0.0, 0.0, 0.0, 0.0, 0.0, 0.0, 1.677615186951719E9, 0.0, 2023-02-28 12:13:06.951
115.0, 26973.8169877311, -4358.701927507153, 16149.269479426084, -3174.5735614983514, 15429.431549242921, 8053.35587899159, -187500.02235174447, -187500.02235174447, -0.184, -0.78, -0.628, 192.0, 0.0, 0.0, 0.0, 0.0, 0.0, 0.0, 0.0, 0.0, 0.0, 1.677615186955714E9, 0.0, 2023-02-28 12:13:06.955
116.0, 26935.774318668166, -4356.980843184095, 16045.915013064745, -3166.7728026834493, 15387.410269666943, 7920.027723315683, -187500.02235174447, -187500.02235174447, -0.184, -0.78, -0.628, 192.0, 0.0, 0.0, 0.0, 0.0, 0.0, 0.0, 0.0, 0.0, 0.0, 1.6776151869587407E9, 0.0, 2023-02-28 12:13:06.958
117.0, 26805.418945004818, -4356.9361396951845, 15231.73036953573, -3158.9273403796365, 14972.517189087534, 7582.941065185198, -187500.02235174447, -187500.02235174447, -0.184, -0.78, -0.628, 192.0, 0.0, 0.0, 0.0, 0.0, 0.0, 0.0, 0.0, 0.0, 0.0, 1.6776151869636948E9, 0.0, 2023-02-28 12:13:06.963
118.0, 26825.647273736868, -4359.417183329723, 15225.315418877057, -3165.3869945272204, 14962.660069782743, 7669.174095293773, -187500.02235174447, -187500.02235174447, -0.178, -0.776, -0.628, 192.0, 250.0, 112.0, 231.0, 192.0, 236.0, 96.0, 0.0, 0.0, 0.0, 1.6776151869677508E9, 0.0, 2023-02-28 12:13:06.967
119.0, 26957.388455556447, -4363.664014776232, 16039.343600194885, -3175.4676312765637, 15378.89425502947, 8019.11300648606, -187500.02235174447, -187500.02235174447, -0.178, -0.776, -0.628, 192.0, 0.0, 0.0, 0.0, 0.0, 0.0, 0.0, 0.0, 0.0, 0.0, 1.6776151869718013E9, 0.0, 2023-02-28 12:13:06.971
120.0, 26957.72373172328, -4361.67470951971, 16152.175206205275, -3169.8573434182817, 15440.093331348102, 7978.321072855124, -187500.02235174447, -187500.02235174447, -0.178, -0.776, -0.628, 192.0, 0.0, 0.0, 0.0, 0.0, 0.0, 0.0, 0.0, 0.0, 0.0, 1.6776151869777389E9, 0.0, 2023-02-28 12:13:06.977
121.0, 26828.754166216157, -4356.5785117839, 15350.708705271329, -3159.039099101913, 15031.816367127463, 7624.403551149792, -187500.02235174447, -187500.02235174447, -0.178, -0.776, -0.628, 192.0, 0.0, 0.0, 0.0, 0.0, 0.0, 0.0, 0.0, 0.0, 0.0, 1.6776151869807673E9, 0.0, 2023-02-28 12:13:06.980
122.0, 26818.36060504444, -4356.62321527281, 15138.5235951571, -3162.4365642591197, 14919.990589617562, 7617.608620835379, -187500.02235174447, -187500.02235174447, -0.178, -0.776, -0.628, 192.0, 0.0, 0.0, 0.0, 0.0, 0.0, 0.0, 0.0, 0.0, 0.0, 1.6776151869838145E9, 0.0, 2023-02-28 12:13:06.983
123.0, 26944.983237383753, -4356.377346083802, 15911.67043586617, -3170.974930641047, 15312.17429783038, 7975.415346075934, -187500.02235174447, -187500.02235174447, -0.178, -0.776, -0.628, 192.0, 0.0, 0.0, 0.0, 0.0, 0.0, 0.0, 0.0, 0.0, 0.0, 1.6776151869877193E9, 0.0, 2023-02-28 12:13:06.987
124.0, 26982.042429690653, -4351.86229370383, 16224.840727429479, -3166.3704712832537, 15481.958148712893, 8026.2432129673025, -187500.02235174447, -187500.02235174447, -0.178, -0.776, -0.628, 192.0, 0.0, 0.0, 0.0, 0.0, 0.0, 0.0, 0.0, 0.0, 0.0, 1.6776151869918225E9, 0.0, 2023-02-28 12:13:06.991
125.0, 26855.464500840248, -4349.895340191762, 15486.942587726426, -3155.5075234779747, 15116.37301640189, 7676.6619296863, -187500.02235174447, -187500.02235174447, -0.178, -0.776, -0.628, 192.0, 0.0, 0.0, 0.0, 0.0, 0.0, 0.0, 0.0, 0.0, 0.0, 1.677615186995803E9, 0.0, 2023-02-28 12:13:06.995
126.0, 26809.44225900677, -4350.789409969975, 15084.74529799763, -3157.1615525676675, 14903.696167909644, 7584.036300663508, -187500.02235174447, -187500.02235174447, -0.178, -0.776, -0.628, 192.0, 0.0, 0.0, 0.0, 0.0, 0.0, 0.0, 0.0, 0.0, 0.0, 1.6776151869998047E9, 0.0, 2023-02-28 12:13:06.999
127.0, 26923.771431895668, -4353.33750883788, 15763.567777105305, -3168.4491835175972, 15242.839186530018, 7914.842118602052, -187500.02235174447, -187500.02235174447, -0.178, -0.776, -0.628, 192.0, 0.0, 0.0, 0.0, 0.0, 0.0, 0.0, 0.0, 0.0, 0.0, 1.67761518700377E9, 0.0, 2023-02-28 12:13:07.003
128.0, 26994.15707518543, -4350.878816947797, 16260.916442980344, -3166.7728026834493, 15503.907561768005, 8053.02060282476, -187500.02235174447, -187500.02235174447, -0.178, -0.776, -0.628, 192.0, 0.0, 0.0, 0.0, 0.0, 0.0, 0.0, 0.0, 0.0, 0.0, 1.6776151870088425E9, 0.0, 2023-02-28 12:13:07.008
129.0, 26889.260338456672, -4347.369593068313, 15637.794511055294, -3155.3287095223322, 15185.976348635717, 7735.067037948017, -187500.02235174447, -187500.02235174447, -0.186, -0.772, -0.618, 192.0, 250.0, 48.0, 231.0, 224.0, 236.0, 176.0, 0.0, 0.0, 0.0, 1.6776151870118392E9, 0.0, 2023-02-28 12:13:07.011
130.0, 26806.849456649958, -4348.017793657517, 15070.753105968608, -3155.105192077779, 14886.887656079252, 7560.20934107415, -187500.02235174447, -187500.02235174447, -0.186, -0.772, -0.618, 192.0, 0.0, 0.0, 0.0, 0.0, 0.0, 0.0, 0.0, 0.0, 0.0, 1.677615187014836E9, 0.0, 2023-02-28 12:13:07.014
131.0, 26908.058155543586, -4349.515360536023, 15608.916057219036, -3165.588160227318, 15156.784970377084, 7852.704269016299, -187500.02235174447, -187500.02235174447, -0.186, -0.772, -0.618, 192.0, 0.0, 0.0, 0.0, 0.0, 0.0, 0.0, 0.0, 0.0, 0.0, 1.6776151870199149E9, 0.0, 2023-02-28 12:13:07.019
132.0, 26993.73239204078, -4350.76705822552, 16257.228405145217, -3168.180962584134, 15499.012529732292, 8068.59976871011, -187500.02235174447, -187500.02235174447, -0.186, -0.772, -0.618, 192.0, 0.0, 0.0, 0.0, 0.0, 0.0, 0.0, 0.0, 0.0, 0.0, 1.6776151870238302E9, 0.0, 2023-02-28 12:13:07.023
133.0, 26902.04553628511, -4347.816627957419, 15791.663919885626, -3157.8991601346925, 15261.949928039305, 7802.099919569483, -187500.02235174447, -187500.02235174447, -0.186, -0.772, -0.618, 192.0, 0.0, 0.0, 0.0, 0.0, 0.0, 0.0, 0.0, 0.0, 0.0, 1.67761518702776E9, 0.0, 2023-02-28 12:13:07.027
134.0, 26802.267349036618, -4348.554235524444, 15096.837591747952, -3155.440468244609, 14898.152935284726, 7557.147152083773, -187500.02235174447, -187500.02235174447, -0.186, -0.772, -0.618, 192.0, 0.0, 0.0, 0.0, 0.0, 0.0, 0.0, 0.0, 0.0, 0.0, 1.6776151870318367E9, 0.0, 2023-02-28 12:13:07.031
135.0, 26885.862873299466, -4349.314194835924, 15459.762866468773, -3165.141125338212, 15082.308957852001, 7785.827849606019, -187500.02235174447, -187500.02235174447, -0.186, -0.772, -0.618, 192.0, 0.0, 0.0, 0.0, 0.0, 0.0, 0.0, 0.0, 0.0, 0.0, 1.6776151870378065E9, 0.0, 2023-02-28 12:13:07.037
136.0, 26999.43208687688, -4348.24131110207, 16214.11189009093, -3170.393785285209, 15470.335241596133, 8067.102201831603, -187500.02235174447, -187500.02235174447, -0.186, -0.772, -0.618, 192.0, 0.0, 0.0, 0.0, 0.0, 0.0, 0.0, 0.0, 0.0, 0.0, 1.6776151870408056E9, 0.0, 2023-02-28 12:13:07.040
137.0, 26932.399205255417, -4344.8438459448635, 15938.671343168182, -3160.7378316805166, 15335.50951904172, 7867.36701337898, -187500.02235174447, -187500.02235174447, -0.186, -0.772, -0.618, 192.0, 0.0, 0.0, 0.0, 0.0, 0.0, 0.0, 0.0, 0.0, 0.0, 1.6776151870439048E9, 0.0, 2023-02-28 12:13:07.043
138.0, 26812.21387531923, -4343.2568720885365, 15159.802455878551, -3154.9487298665917, 14940.755360216543, 7561.662204463745, -187500.02235174447, -187500.02235174447, -0.186, -0.772, -0.618, 192.0, 0.0, 0.0, 0.0, 0.0, 0.0, 0.0, 0.0, 0.0, 0.0, 1.6776151870478466E9, 0.0, 2023-02-28 12:13:07.047
139.0, 26864.494605600194, -4340.507607520533, 15325.741806714752, -3162.1236398367455, 15018.897058832295, 7723.265316875615, -187500.02235174447, -187500.02235174447, -0.182, -0.778, -0.62, 192.0, 250.0, 80.0, 231.0, 176.0, 236.0, 160.0, 0.0, 0.0, 0.0, 1.67761518705186E9, 0.0, 2023-02-28 12:13:07.051
140.0, 27002.941310756363, -4335.992555140562, 16135.791377519534, -3168.851514917793, 15431.979648110826, 8055.568701692665, -187500.02235174447, -187500.02235174447, -0.182, -0.778, -0.62, 192.0, 0.0, 0.0, 0.0, 0.0, 0.0, 0.0, 0.0, 0.0, 0.0, 1.6776151870558612E9, 0.0, 2023-02-28 12:13:07.055
141.0, 26974.39813308694, -4332.438627772168, 16068.154998797776, -3161.4530875030864, 15401.089537273592, 7937.685601435376, -187500.02235174447, -187500.02235174447, -0.182, -0.778, -0.62, 192.0, 0.0, 0.0, 0.0, 0.0, 0.0, 0.0, 0.0, 0.0, 0.0, 1.6776151870598152E9, 0.0, 2023-02-28 12:13:07.059
142.0, 26819.679357967303, -4339.010040642028, 15251.668125589864, -3155.082840333324, 14983.134267703805, 7592.887591467809, -187500.02235174447, -187500.02235174447, -0.182, -0.778, -0.62, 192.0, 0.0, 0.0, 0.0, 0.0, 0.0, 0.0, 0.0, 0.0, 0.0, 1.6776151870627928E9, 0.0, 2023-02-28 12:13:07.062
143.0, 26826.720157470725, -4343.86036918883, 15211.993779181694, -3161.5201427364523, 14955.19458713467, 7659.7863626225435, -187500.02235174447, -187500.02235174447, -0.182, -0.778, -0.62, 192.0, 0.0, 0.0, 0.0, 0.0, 0.0, 0.0, 0.0, 0.0, 0.0, 1.6776151870688612E9, 0.0, 2023-02-28 12:13:07.068
144.0, 26968.85490046202, -4341.871063932307, 16022.579791853404, -3169.231494573533, 15376.033231739191, 8012.832166294118, -187500.02235174447, -187500.02235174447, -0.182, -0.778, -0.62, 192.0, 0.0, 0.0, 0.0, 0.0, 0.0, 0.0, 0.0, 0.0, 0.0, 1.6776151870719042E9, 0.0, 2023-02-28 12:13:07.071
145.0, 26978.354391855526, -4336.774866196498, 16166.010936023109, -3162.9283026371363, 15452.967936154359, 7991.3744916170235, -187500.02235174447, -187500.02235174447, -0.182, -0.778, -0.62, 192.0, 0.0, 0.0, 0.0, 0.0, 0.0, 0.0, 0.0, 0.0, 0.0, 1.677615187074906E9, 0.0, 2023-02-28 12:13:07.074
146.0, 26842.835765223, -4336.0372586294725, 15369.70768805834, -3153.3170525213545, 15048.803692913496, 7632.94191753172, -187500.02235174447, -187500.02235174447, -0.182, -0.778, -0.62, 192.0, 0.0, 0.0, 0.0, 0.0, 0.0, 0.0, 0.0, 0.0, 0.0, 1.6776151870799117E9, 0.0, 2023-02-28 12:13:07.079
147.0, 26821.22162833472, -4340.641717987266, 15125.17960371728, -3157.9885671125135, 14922.605743718834, 7611.171318432251, -187500.02235174447, -187500.02235174447, -0.182, -0.778, -0.62, 192.0, 0.0, 0.0, 0.0, 0.0, 0.0, 0.0, 0.0, 0.0, 0.0, 1.6776151870839012E9, 0.0, 2023-02-28 12:13:07.083
148.0, 26948.67127521888, -4344.709735478132, 15886.010633231477, -3169.3209015513544, 15309.26857105119, 7960.171456357415, -187500.02235174447, -187500.02235174447, -0.182, -0.778, -0.62, 192.0, 0.0, 0.0, 0.0, 0.0, 0.0, 0.0, 0.0, 0.0, 0.0, 1.677615187087984E9, 0.0, 2023-02-28 12:13:07.087
149.0, 26984.031734947173, -4345.223825600604, 16233.133224622397, -3167.6668724616616, 15490.742384283827, 8027.15963448997, -187500.02235174447, -187500.02235174447, -0.186, -0.774, -0.62, 192.0, 250.0, 48.0, 231.0, 208.0, 236.0, 160.0, 0.0, 0.0, 0.0, 1.677615187091893E9, 0.0, 2023-02-28 12:13:07.091
150.0, 26859.711332286755, -4342.586319754877, 15512.870611294582, -3156.6698141896504, 15126.163080473314, 7683.210990811705, -187500.02235174447, -187500.02235174447, -0.186, -0.774, -0.62, 192.0, 0.0, 0.0, 0.0, 0.0, 0.0, 0.0, 0.0, 0.0, 0.0, 1.6776151870959177E9, 0.0, 2023-02-28 12:13:07.095
151.0, 26810.15751482934, -4342.586319754877, 15081.37018458488, -3158.2791397904325, 14902.913856853707, 7572.7933732024885, -187500.02235174447, -187500.02235174447, -0.186, -0.774, -0.62, 192.0, 0.0, 0.0, 0.0, 0.0, 0.0, 0.0, 0.0, 0.0, 0.0, 1.6776151870989404E9, 0.0, 2023-02-28 12:13:07.098
152.0, 26931.75100466621, -4344.061534888928, 15738.31030587081, -3169.3879567847202, 15232.266811402656, 7900.626409128477, -187500.02235174447, -187500.02235174447, -0.186, -0.774, -0.62, 192.0, 0.0, 0.0, 0.0, 0.0, 0.0, 0.0, 0.0, 0.0, 0.0, 1.6776151871028771E9, 0.0, 2023-02-28 12:13:07.102
153.0, 27000.616729333015, -4343.748610466553, 16264.448018604282, -3169.4103085291754, 15501.359462900098, 8058.921463360962, -187500.02235174447, -187500.02235174447, -0.186, -0.774, -0.62, 192.0, 0.0, 0.0, 0.0, 0.0, 0.0, 0.0, 0.0, 0.0, 0.0, 1.6776151871079774E9, 0.0, 2023-02-28 12:13:07.107
154.0, 26887.98628902272, -4342.0275261434945, 15664.236624745921, -3158.3461950237984, 15197.219276096735, 7749.796837544065, -187500.02235174447, -187500.02235174447, -0.186, -0.774, -0.62, 192.0, 0.0, 0.0, 0.0, 0.0, 0.0, 0.0, 0.0, 0.0, 0.0, 1.677615187111881E9, 0.0, 2023-02-28 12:13:07.111
155.0, 26809.48696249568, -4341.178159854193, 15072.429486802755, -3155.9992618559913, 14891.715632881598, 7564.098544609374, -187500.02235174447, -187500.02235174447, -0.186, -0.774, -0.62, 192.0, 0.0, 0.0, 0.0, 0.0, 0.0, 0.0, 0.0, 0.0, 0.0, 1.677615187116109E9, 0.0, 2023-02-28 12:13:07.116
156.0, 26912.819077112566, -4341.2005115986485, 15584.440897040475, -3165.9234363941478, 15150.638240651875, 7848.055106169594, -187500.02235174447, -187500.02235174447, -0.186, -0.774, -0.62, 192.0, 0.0, 0.0, 0.0, 0.0, 0.0, 0.0, 0.0, 0.0, 0.0, 1.6776151871189651E9, 0.0, 2023-02-28 12:13:07.118
157.0, 27005.690575324366, -4343.122761621805, 16254.635602788401, -3169.522067251452, 15498.006701231803, 8075.5511612357095, -187500.02235174447, -187500.02235174447, -0.186, -0.774, -0.62, 192.0, 0.0, 0.0, 0.0, 0.0, 0.0, 0.0, 0.0, 0.0, 0.0, 1.6776151871228738E9, 0.0, 2023-02-28 12:13:07.122
158.0, 26920.105745804998, -4339.390020297768, 15816.496707975473, -3158.7038229350833, 15279.339585225534, 7817.388512776914, -187500.02235174447, -187500.02235174447, -0.186, -0.774, -0.62, 192.0, 0.0, 0.0, 0.0, 0.0, 0.0, 0.0, 0.0, 0.0, 0.0, 1.6776151871269145E9, 0.0, 2023-02-28 12:13:07.126
159.0, 26822.27216032412, -4338.115970863816, 15102.22436216168, -3155.8875031337147, 14908.010054589518, 7560.812838174444, -187500.02235174447, -187500.02235174447, -0.188, -0.776, -0.624, 192.0, 250.0, 32.0, 231.0, 192.0, 236.0, 128.0, 0.0, 0.0, 0.0, 1.677615187130875E9, 0.0, 2023-02-28 12:13:07.130
160.0, 26887.718068089256, -4343.033354643983, 15435.779444668227, -3166.146953838701, 15073.122390880872, 7783.726785627221, -187500.02235174447, -187500.02235174447, -0.188, -0.776, -0.624, 192.0, 0.0, 0.0, 0.0, 0.0, 0.0, 0.0, 0.0, 0.0, 0.0, 1.6776151871359136E9, 0.0, 2023-02-28 12:13:07.135
161.0, 26995.38642113047, -4346.76609596802, 16203.360701007929, -3172.4724975195527, 15472.279843363744, 8073.271283301268, -187500.02235174447, -187500.02235174447, -0.188, -0.776, -0.624, 192.0, 0.0, 0.0, 0.0, 0.0, 0.0, 0.0, 0.0, 0.0, 0.0, 1.6776151871398647E9, 0.0, 2023-02-28 12:13:07.139
162.0, 26942.47984200476, -4343.748610466553, 15960.129017845276, -3163.688261948617, 15355.84960649605, 7885.762499065698, -187500.02235174447, -187500.02235174447, -0.188, -0.776, -0.624, 192.0, 0.0, 0.0, 0.0, 0.0, 0.0, 0.0, 0.0, 0.0, 0.0, 1.6776151871439373E9, 0.0, 2023-02-28 12:13:07.143
163.0, 26827.323654571017, -4341.736953465575, 15169.637223438887, -3157.206256056578, 14948.556119031444, 7576.168486615239, -187500.02235174447, -187500.02235174447, -0.188, -0.776, -0.624, 192.0, 0.0, 0.0, 0.0, 0.0, 0.0, 0.0, 0.0, 0.0, 0.0, 1.6776151871469474E9, 0.0, 2023-02-28 12:13:07.146
164.0, 26872.451826626282, -4343.189816855171, 15305.401719260422, -3165.588160227318, 15012.482108173623, 7717.0738836614955, -187500.02235174447, -187500.02235174447, -0.188, -0.776, -0.624, 192.0, 0.0, 0.0, 0.0, 0.0, 0.0, 0.0, 0.0, 0.0, 0.0, 1.6776151871509745E9, 0.0, 2023-02-28 12:13:07.150
165.0, 27004.5729881016, -4341.915767421218, 16120.994522690122, -3172.7630701974717, 15429.945639365393, 8050.360745234579, -187500.02235174447, -187500.02235174447, -0.188, -0.776, -0.624, 192.0, 0.0, 0.0, 0.0, 0.0, 0.0, 0.0, 0.0, 0.0, 0.0, 1.6776151871549733E9, 0.0, 2023-02-28 12:13:07.154
166.0, 26963.155205625917, -4342.116933121316, 16089.143286841309, -3164.917607893659, 15415.439357213898, 7948.034459118183, -187500.02235174447, -187500.02235174447, -0.188, -0.776, -0.624, 192.0, 0.0, 0.0, 0.0, 0.0, 0.0, 0.0, 0.0, 0.0, 0.0, 1.6776151871590264E9, 0.0, 2023-02-28 12:13:07.159
167.0, 26813.64438696437, -4346.699040734654, 15271.292957221624, -3157.452125245586, 14995.852410298874, 7601.761234016566, -187500.02235174447, -187500.02235174447, -0.188, -0.776, -0.624, 192.0, 0.0, 0.0, 0.0, 0.0, 0.0, 0.0, 0.0, 0.0, 0.0, 1.6776151871639724E9, 0.0, 2023-02-28 12:13:07.163
168.0, 26818.025328877608, -4351.750534981553, 15198.135697619404, -3164.135296837723, 14953.540558044979, 7656.6571183988, -187500.02235174447, -187500.02235174447, -0.188, -0.776, -0.624, 192.0, 0.0, 0.0, 0.0, 0.0, 0.0, 0.0, 0.0, 0.0, 0.0, 1.6776151871680171E9, 0.0, 2023-02-28 12:13:07.168
169.0, 26945.877307161965, -4356.042069916973, 16006.955922479145, -3173.299512064399, 15367.204292679346, 8004.606724334565, -187500.02235174447, -187500.02235174447, -0.186, -0.774, -0.63, 192.0, 250.0, 48.0, 231.0, 208.0, 236.0, 80.0, 0.0, 0.0, 0.0, 1.6776151871719368E9, 0.0, 2023-02-28 12:13:07.171
170.0, 26944.424443772372, -4356.846732717363, 16184.898160087843, -3168.516238750963, 15460.656936246985, 7995.889543996996, -187500.02235174447, -187500.02235174447, -0.186, -0.774, -0.63, 192.0, 0.0, 0.0, 0.0, 0.0, 0.0, 0.0, 0.0, 0.0, 0.0, 1.6776151871749315E9, 0.0, 2023-02-28 12:13:07.174
171.0, 26796.880578622888, -4358.791334484975, 15398.47438317232, -3159.3520235242872, 15059.487826763134, 7645.034211282041, -187500.02235174447, -187500.02235174447, -0.186, -0.774, -0.63, 192.0, 0.0, 0.0, 0.0, 0.0, 0.0, 0.0, 0.0, 0.0, 0.0, 1.677615187178982E9, 0.0, 2023-02-28 12:13:07.178
172.0, 26755.663961847302, -4365.3850990992905, 15122.09506298245, -3163.5094479929744, 14918.314208783415, 7609.941972487209, -187500.02235174447, -187500.02235174447, -0.186, -0.774, -0.63, 192.0, 0.0, 0.0, 0.0, 0.0, 0.0, 0.0, 0.0, 0.0, 0.0, 1.677615187182972E9, 0.0, 2023-02-28 12:13:07.182
173.0, 26876.050457483587, -4372.157677669248, 15868.151589411687, -3175.2217620875554, 15293.912922610394, 7954.3376510545795, -187500.02235174447, -187500.02235174447, -0.186, -0.774, -0.63, 192.0, 0.0, 0.0, 0.0, 0.0, 0.0, 0.0, 0.0, 0.0, 0.0, 1.677615187186977E9, 0.0, 2023-02-28 12:13:07.186
174.0, 26905.84533284251, -4374.124631181316, 16247.013657929143, -3173.8359539313265, 15494.810401774694, 8025.527957144733, -187500.02235174447, -187500.02235174447, -0.186, -0.774, -0.63, 192.0, 0.0, 0.0, 0.0, 0.0, 0.0, 0.0, 0.0, 0.0, 0.0, 1.6776151871919675E9, 0.0, 2023-02-28 12:13:07.191
175.0, 26763.263554962108, -4375.890418993285, 15543.000762820337, -3162.682433448128, 15136.556641645033, 7686.094365846439, -187500.02235174447, -187500.02235174447, -0.186, -0.774, -0.63, 192.0, 0.0, 0.0, 0.0, 0.0, 0.0, 0.0, 0.0, 0.0, 0.0, 1.6776151871959825E9, 0.0, 2023-02-28 12:13:07.195
176.0, 26693.928443661745, -4382.037148718494, 15082.197199129725, -3163.688261948617, 14893.861400349308, 7568.211265589151, -187500.02235174447, -187500.02235174447, -0.186, -0.774, -0.63, 192.0, 0.0, 0.0, 0.0, 0.0, 0.0, 0.0, 0.0, 0.0, 0.0, 1.67761518719999E9, 0.0, 2023-02-28 12:13:07.199
177.0, 26806.089497338475, -4387.379215643313, 15718.126680627667, -3175.065299876368, 15215.234782127713, 7889.338778178547, -187500.02235174447, -187500.02235174447, -0.186, -0.774, -0.63, 192.0, 0.0, 0.0, 0.0, 0.0, 0.0, 0.0, 0.0, 0.0, 0.0, 1.67761518720303E9, 0.0, 2023-02-28 12:13:07.203
178.0, 26863.399370121882, -4394.509422124555, 16272.360536141461, -3178.7756894559493, 15501.270055922278, 8055.16637029247, -187500.02235174447, -187500.02235174447, -0.186, -0.774, -0.63, 192.0, 0.0, 0.0, 0.0, 0.0, 0.0, 0.0, 0.0, 0.0, 0.0, 1.677615187207028E9, 0.0, 2023-02-28 12:13:07.207
179.0, 26748.62316234388, -4394.509422124555, 15697.048985606312, -3168.3597765397762, 15205.735290734208, 7754.513055624135, -187500.02235174447, -187500.02235174447, -0.184, -0.772, -0.63, 192.0, 250.0, 64.0, 231.0, 224.0, 236.0, 80.0, 0.0, 0.0, 0.0, 1.6776151872109888E9, 0.0, 2023-02-28 12:13:07.210
180.0, 26657.718617644146, -4398.912715782251, 15083.806524730508, -3168.560942239874, 14885.27833047847, 7552.341527025882, -187500.02235174447, -187500.02235174447, -0.184, -0.772, -0.63, 192.0, 0.0, 0.0, 0.0, 0.0, 0.0, 0.0, 0.0, 0.0, 0.0, 1.6776151872149732E9, 0.0, 2023-02-28 12:13:07.214
181.0, 26749.830156544467, -4402.377236172823, 15568.481751499387, -3179.334483067332, 15130.208746219725, 7822.238841323715, -187500.02235174447, -187500.02235174447, -0.184, -0.772, -0.63, 192.0, 0.0, 0.0, 0.0, 0.0, 0.0, 0.0, 0.0, 0.0, 0.0, 1.6776151872199948E9, 0.0, 2023-02-28 12:13:07.219
182.0, 26834.699730241267, -4403.405416417768, 16256.468445833738, -3181.9719889130583, 15483.276901635756, 8065.403469253, -187500.02235174447, -187500.02235174447, -0.184, -0.772, -0.63, 192.0, 0.0, 0.0, 0.0, 0.0, 0.0, 0.0, 0.0, 0.0, 0.0, 1.677615187224144E9, 0.0, 2023-02-28 12:13:07.224
183.0, 26737.894325005334, -4403.695989095687, 15847.163301368155, -3172.204276586089, 15276.4562101908, 7820.875384911941, -187500.02235174447, -187500.02235174447, -0.184, -0.772, -0.63, 192.0, 0.0, 0.0, 0.0, 0.0, 0.0, 0.0, 0.0, 0.0, 0.0, 1.6776151872280655E9, 0.0, 2023-02-28 12:13:07.228
184.0, 26638.406710434763, -4402.466643150645, 15118.60819084742, -3167.8903899062148, 14904.500830710034, 7551.894492136776, -187500.02235174447, -187500.02235174447, -0.184, -0.772, -0.63, 192.0, 0.0, 0.0, 0.0, 0.0, 0.0, 0.0, 0.0, 0.0, 0.0, 1.677615187231068E9, 0.0, 2023-02-28 12:13:07.231
185.0, 26708.501781046605, -4404.433596662712, 15420.736720649806, -3177.8369161888263, 15056.805617428497, 7760.9280062828075, -187500.02235174447, -187500.02235174447, -0.184, -0.772, -0.63, 192.0, 0.0, 0.0, 0.0, 0.0, 0.0, 0.0, 0.0, 0.0, 0.0, 1.6776151872350714E9, 0.0, 2023-02-28 12:13:07.235
186.0, 26813.085593352986, -4409.239221720603, 16202.198410296252, -3184.9894744145245, 15453.72789546584, 8060.441381983922, -187500.02235174447, -187500.02235174447, -0.184, -0.772, -0.63, 192.0, 0.0, 0.0, 0.0, 0.0, 0.0, 0.0, 0.0, 0.0, 0.0, 1.6776151872390409E9, 0.0, 2023-02-28 12:13:07.239
187.0, 26748.399644899328, -4410.580326387922, 15991.35440484934, -3175.8029074433935, 15348.60764129253, 7885.740147321242, -187500.02235174447, -187500.02235174447, -0.184, -0.772, -0.63, 192.0, 0.0, 0.0, 0.0, 0.0, 0.0, 0.0, 0.0, 0.0, 0.0, 1.6776151872430234E9, 0.0, 2023-02-28 12:13:07.243
188.0, 26632.46114640965, -4407.674599608731, 15191.296063816078, -3168.0245003729465, 14938.922517171208, 7569.775887701022, -187500.02235174447, -187500.02235174447, -0.184, -0.772, -0.63, 192.0, 0.0, 0.0, 0.0, 0.0, 0.0, 0.0, 0.0, 0.0, 0.0, 1.6776151872470007E9, 0.0, 2023-02-28 12:13:07.247
189.0, 26663.41831248025, -4412.726093855631, 15289.844905119528, -3175.7582039544827, 14992.92433177523, 7696.756147951621, -187500.02235174447, -187500.02235174447, -0.18, -0.774, -0.626, 192.0, 250.0, 96.0, 231.0, 208.0, 236.0, 112.0, 0.0, 0.0, 0.0, 1.6776151872520244E9, 0.0, 2023-02-28 12:13:07.252
190.0, 26788.699840152247, -4413.798977589486, 16108.61165626188, -3184.140108125223, 15410.47726994482, 8037.083809028127, -187500.02235174447, -187500.02235174447, -0.18, -0.774, -0.626, 192.0, 0.0, 0.0, 0.0, 0.0, 0.0, 0.0, 0.0, 0.0, 0.0, 1.677615187255099E9, 0.0, 2023-02-28 12:13:07.255
191.0, 26766.683371863768, -4410.647381621287, 16108.589304517425, -3177.0769568773458, 15413.405348468466, 7948.302680051646, -187500.02235174447, -187500.02235174447, -0.18, -0.774, -0.626, 192.0, 0.0, 0.0, 0.0, 0.0, 0.0, 0.0, 0.0, 0.0, 0.0, 1.677615187259045E9, 0.0, 2023-02-28 12:13:07.259
192.0, 26644.486384926604, -4404.67946585172, 15293.3094255101, -3167.5104102504743, 14996.63472135481, 7600.21896364915, -187500.02235174447, -187500.02235174447, -0.18, -0.774, -0.626, 192.0, 0.0, 0.0, 0.0, 0.0, 0.0, 0.0, 0.0, 0.0, 0.0, 1.6776151872630186E9, 0.0, 2023-02-28 12:13:07.263
193.0, 26641.51360291405, -4407.451082164179, 15187.00452888066, -3173.366567297765, 14938.743703215565, 7640.27328971306, -187500.02235174447, -187500.02235174447, -0.18, -0.774, -0.626, 192.0, 0.0, 0.0, 0.0, 0.0, 0.0, 0.0, 0.0, 0.0, 0.0, 1.677615187267167E9, 0.0, 2023-02-28 12:13:07.267
194.0, 26769.81261608751, -4409.3509804428795, 15989.298044359452, -3183.3130935803765, 15346.551280802641, 7997.655331808965, -187500.02235174447, -187500.02235174447, -0.18, -0.774, -0.626, 192.0, 0.0, 0.0, 0.0, 0.0, 0.0, 0.0, 0.0, 0.0, 0.0, 1.6776151872710428E9, 0.0, 2023-02-28 12:13:07.271
195.0, 26785.525892439593, -4405.484128652111, 16198.73388990568, -3178.0157301444688, 15459.092314135112, 8004.003227234272, -187500.02235174447, -187500.02235174447, -0.18, -0.774, -0.626, 192.0, 0.0, 0.0, 0.0, 0.0, 0.0, 0.0, 0.0, 0.0, 0.0, 1.677615187275066E9, 0.0, 2023-02-28 12:13:07.275
196.0, 26655.93047808772, -4401.840794305896, 15421.295514261188, -3167.0633753613683, 15067.154475111303, 7650.912720073787, -187500.02235174447, -187500.02235174447, -0.18, -0.774, -0.626, 192.0, 0.0, 0.0, 0.0, 0.0, 0.0, 0.0, 0.0, 0.0, 0.0, 1.6776151872800899E9, 0.0, 2023-02-28 12:13:07.280
197.0, 26621.352329415364, -4405.193555974192, 15116.440071635256, -3170.684357963128, 14901.058662063917, 7603.191745661706, -187500.02235174447, -187500.02235174447, -0.18, -0.774, -0.626, 192.0, 0.0, 0.0, 0.0, 0.0, 0.0, 0.0, 0.0, 0.0, 0.0, 1.6776151872830777E9, 0.0, 2023-02-28 12:13:07.283
198.0, 26745.046883231033, -4409.306276953969, 15848.99614441349, -3181.793174957416, 15271.851750833006, 7948.3473835405575, -187500.02235174447, -187500.02235174447, -0.18, -0.774, -0.626, 192.0, 0.0, 0.0, 0.0, 0.0, 0.0, 0.0, 0.0, 0.0, 0.0, 1.677615187287076E9, 0.0, 2023-02-28 12:13:07.287
199.0, 26795.15949429983, -4406.512308897056, 16256.110817922452, -3178.7086342225834, 15489.334224383143, 8039.7436666183075, -187500.02235174447, -187500.02235174447, -0.184, -0.772, -0.624, 192.0, 250.0, 64.0, 231.0, 224.0, 236.0, 128.0, 0.0, 0.0, 0.0, 1.6776151872910995E9, 0.0, 2023-02-28 12:13:07.291
200.0, 26669.118007316352, -4406.2440879635915, 15569.487579999875, -3168.9632736400695, 15143.642144637364, 7705.585087011467, -187500.02235174447, -187500.02235174447, -0.184, -0.772, -0.624, 192.0, 0.0, 0.0, 0.0, 0.0, 0.0, 0.0, 0.0, 0.0, 0.0, 1.6776151872950518E9, 0.0, 2023-02-28 12:13:07.295
201.0, 26608.723593798113, -4407.138157741804, 15084.231207875158, -3170.080860862835, 14890.173362514182, 7573.083945880408, -187500.02235174447, -187500.02235174447, -0.184, -0.772, -0.624, 192.0, 0.0, 0.0, 0.0, 0.0, 0.0, 0.0, 0.0, 0.0, 0.0, 1.6776151872990816E9, 0.0, 2023-02-28 12:13:07.299
202.0, 26719.8564672299, -4409.529794398522, 15698.814773418282, -3181.3461400683095, 15200.10265113147, 7887.103603733016, -187500.02235174447, -187500.02235174447, -0.184, -0.772, -0.624, 192.0, 0.0, 0.0, 0.0, 0.0, 0.0, 0.0, 0.0, 0.0, 0.0, 1.6776151873030832E9, 0.0, 2023-02-28 12:13:07.303
203.0, 26794.35483149944, -4410.4909194101, 16275.17685594283, -3183.469555791564, 15499.504268110308, 8066.655166942498, -187500.02235174447, -187500.02235174447, -0.184, -0.772, -0.624, 192.0, 0.0, 0.0, 0.0, 0.0, 0.0, 0.0, 0.0, 0.0, 0.0, 1.6776151873081248E9, 0.0, 2023-02-28 12:13:07.308
204.0, 26689.45809477068, -4408.278096709025, 15723.178174874565, -3173.34421555331, 15217.358197850966, 7770.874532565419, -187500.02235174447, -187500.02235174447, -0.184, -0.772, -0.624, 192.0, 0.0, 0.0, 0.0, 0.0, 0.0, 0.0, 0.0, 0.0, 0.0, 1.677615187311086E9, 0.0, 2023-02-28 12:13:07.311
205.0, 26595.960747714133, -4408.769835087041, 15089.394460844334, -3171.8690004192595, 14885.501847923024, 7560.499913752069, -187500.02235174447, -187500.02235174447, -0.184, -0.772, -0.624, 192.0, 0.0, 0.0, 0.0, 0.0, 0.0, 0.0, 0.0, 0.0, 0.0, 1.6776151873150861E9, 0.0, 2023-02-28 12:13:07.315
206.0, 26686.597071480403, -4409.596849631888, 15544.721847143395, -3182.3519685687984, 15109.622789576388, 7825.524547758645, -187500.02235174447, -187500.02235174447, -0.184, -0.772, -0.624, 192.0, 0.0, 0.0, 0.0, 0.0, 0.0, 0.0, 0.0, 0.0, 0.0, 1.6776151873191144E9, 0.0, 2023-02-28 12:13:07.319
207.0, 26792.00789833163, -4410.11093975436, 16251.416951586838, -3186.174116870656, 15470.469352062864, 8077.4287077699555, -187500.02235174447, -187500.02235174447, -0.184, -0.772, -0.624, 192.0, 0.0, 0.0, 0.0, 0.0, 0.0, 0.0, 0.0, 0.0, 0.0, 1.6776151873231232E9, 0.0, 2023-02-28 12:13:07.323
208.0, 26709.641720013824, -4409.194518231692, 15873.650118547694, -3175.937017910125, 15280.12189628147, 7841.684858999832, -187500.02235174447, -187500.02235174447, -0.184, -0.772, -0.624, 192.0, 0.0, 0.0, 0.0, 0.0, 0.0, 0.0, 0.0, 0.0, 0.0, 1.6776151873271005E9, 0.0, 2023-02-28 12:13:07.327
209.0, 26597.21244540363, -4408.8815938093185, 15129.202917719236, -3170.684357963128, 14896.364795728303, 7566.914864410743, -187500.02235174447, -187500.02235174447, -0.192, -0.772, -0.626, 192.0, 250.0, 0.0, 231.0, 224.0, 236.0, 112.0, 0.0, 0.0, 0.0, 1.6776151873311124E9, 0.0, 2023-02-28 12:13:07.331
210.0, 26658.61268742236, -4412.435521177712, 15398.630845383508, -3179.9603319120806, 15033.135120050327, 7762.6267388614115, -187500.02235174447, -187500.02235174447, -0.192, -0.772, -0.626, 192.0, 0.0, 0.0, 0.0, 0.0, 0.0, 0.0, 0.0, 0.0, 0.0, 1.6776151873361173E9, 0.0, 2023-02-28 12:13:07.336
211.0, 26787.939880840768, -4413.553108400477, 16187.937997333765, -3187.135241882234, 15439.847462159094, 8068.68917568793, -187500.02235174447, -187500.02235174447, -0.192, -0.772, -0.626, 192.0, 0.0, 0.0, 0.0, 0.0, 0.0, 0.0, 0.0, 0.0, 0.0, 1.6776151873390937E9, 0.0, 2023-02-28 12:13:07.339
212.0, 26727.545467322525, -4418.291678225002, 16014.510812105038, -3181.077919134846, 15351.982754705281, 7909.365941210502, -187500.02235174447, -187500.02235174447, -0.192, -0.772, -0.626, 192.0, 0.0, 0.0, 0.0, 0.0, 0.0, 0.0, 0.0, 0.0, 0.0, 1.677615187342177E9, 0.0, 2023-02-28 12:13:07.342
213.0, 26597.100686681355, -4419.364561958857, 15211.949075692783, -3174.975892898547, 14934.42981653569, 7587.701986754178, -187500.02235174447, -187500.02235174447, -0.192, -0.772, -0.626, 192.0, 0.0, 0.0, 0.0, 0.0, 0.0, 0.0, 0.0, 0.0, 0.0, 1.6776151873471484E9, 0.0, 2023-02-28 12:13:07.347
214.0, 26631.008283020055, -4421.376218959835, 15279.540750925631, -3182.530782524441, 14966.348107617869, 7701.941752665252, -187500.02235174447, -187500.02235174447, -0.192, -0.772, -0.626, 192.0, 0.0, 0.0, 0.0, 0.0, 0.0, 0.0, 0.0, 0.0, 0.0, 1.6776151873511171E9, 0.0, 2023-02-28 12:13:07.351
215.0, 26763.285906706562, -4423.298468982991, 16097.90517066779, -3190.5774105283513, 15391.187714479891, 8040.861253841073, -187500.02235174447, -187500.02235174447, -0.192, -0.772, -0.626, 192.0, 0.0, 0.0, 0.0, 0.0, 0.0, 0.0, 0.0, 0.0, 0.0, 1.6776151873551216E9, 0.0, 2023-02-28 12:13:07.355
216.0, 26743.594019841436, -4423.901966083285, 16135.254935652607, -3184.944770925614, 15412.511278690254, 7966.1393721269815, -187500.02235174447, -187500.02235174447, -0.192, -0.772, -0.626, 192.0, 0.0, 0.0, 0.0, 0.0, 0.0, 0.0, 0.0, 0.0, 0.0, 1.6776151873591547E9, 0.0, 2023-02-28 12:13:07.359
217.0, 26603.426230362205, -4423.92431782774, 15324.84773693654, -3176.1158318657676, 14993.527828875522, 7620.782568548032, -187500.02235174447, -187500.02235174447, -0.192, -0.772, -0.626, 192.0, 0.0, 0.0, 0.0, 0.0, 0.0, 0.0, 0.0, 0.0, 0.0, 1.6776151873641486E9, 0.0, 2023-02-28 12:13:07.364
218.0, 26605.147314685266, -4425.511291684066, 15185.015223624137, -3182.173154613156, 14916.324903526891, 7645.950632804708, -187500.02235174447, -187500.02235174447, -0.192, -0.772, -0.626, 192.0, 0.0, 0.0, 0.0, 0.0, 0.0, 0.0, 0.0, 0.0, 0.0, 1.6776151873672068E9, 0.0, 2023-02-28 12:13:07.367
219.0, 26738.162545938798, -4427.679410896231, 15978.055116898433, -3191.91851519567, 15325.89826892594, 7995.062529452149, -187500.02235174447, -187500.02235174447, -0.182, -0.77, -0.628, 192.0, 250.0, 80.0, 231.0, 240.0, 236.0, 96.0, 0.0, 0.0, 0.0, 1.6776151873711796E9, 0.0, 2023-02-28 12:13:07.371
220.0, 26761.229546216673, -4422.493806182601, 16222.516146006126, -3186.10706163729, 15456.00777340028, 8013.748587816786, -187500.02235174447, -187500.02235174447, -0.182, -0.77, -0.628, 192.0, 0.0, 0.0, 0.0, 0.0, 0.0, 0.0, 0.0, 0.0, 0.0, 1.67761518737515E9, 0.0, 2023-02-28 12:13:07.375
221.0, 26628.773108574525, -4418.358733458368, 15455.627793744541, -3174.953541154092, 15063.287623320535, 7663.541455691035, -187500.02235174447, -187500.02235174447, -0.182, -0.77, -0.628, 192.0, 0.0, 0.0, 0.0, 0.0, 0.0, 0.0, 0.0, 0.0, 0.0, 1.67761518737923E9, 0.0, 2023-02-28 12:13:07.379
222.0, 26598.933529726688, -4415.564765401455, 15118.854060036429, -3176.562866754874, 14882.216141488094, 7604.309332884471, -187500.02235174447, -187500.02235174447, -0.182, -0.77, -0.628, 192.0, 0.0, 0.0, 0.0, 0.0, 0.0, 0.0, 0.0, 0.0, 0.0, 1.6776151873831923E9, 0.0, 2023-02-28 12:13:07.383
223.0, 26722.046938186522, -4417.285849724513, 15834.109882606255, -3186.330579081843, 15250.528186622643, 7950.090819608072, -187500.02235174447, -187500.02235174447, -0.182, -0.77, -0.628, 192.0, 0.0, 0.0, 0.0, 0.0, 0.0, 0.0, 0.0, 0.0, 0.0, 1.6776151873871417E9, 0.0, 2023-02-28 12:13:07.387
224.0, 26775.177034756787, -4416.503538668578, 16269.253643662172, -3184.6989017366054, 15477.934834710937, 8065.761097164285, -187500.02235174447, -187500.02235174447, -0.182, -0.77, -0.628, 192.0, 0.0, 0.0, 0.0, 0.0, 0.0, 0.0, 0.0, 0.0, 0.0, 1.6776151873912177E9, 0.0, 2023-02-28 12:13:07.391
225.0, 26658.27741125553, -4413.508404911567, 15600.355339092654, -3173.9253609091475, 15139.104740512937, 7736.989287971174, -187500.02235174447, -187500.02235174447, -0.182, -0.77, -0.628, 192.0, 0.0, 0.0, 0.0, 0.0, 0.0, 0.0, 0.0, 0.0, 0.0, 1.677615187395188E9, 0.0, 2023-02-28 12:13:07.395
226.0, 26592.563282556926, -4416.056503779471, 15088.142763154838, -3175.266465576466, 14872.493132650035, 7589.26660886605, -187500.02235174447, -187500.02235174447, -0.182, -0.77, -0.628, 192.0, 0.0, 0.0, 0.0, 0.0, 0.0, 0.0, 0.0, 0.0, 0.0, 1.6776151873982465E9, 0.0, 2023-02-28 12:13:07.398
227.0, 26703.137362377332, -4418.738713114109, 15678.899369108603, -3186.5093930374856, 15170.754810661652, 7894.814955570097, -187500.02235174447, -187500.02235174447, -0.182, -0.77, -0.628, 192.0, 0.0, 0.0, 0.0, 0.0, 0.0, 0.0, 0.0, 0.0, 0.0, 1.6776151874032423E9, 0.0, 2023-02-28 12:13:07.403
228.0, 26793.661927421326, -4418.82812009193, 16279.98248100072, -3187.9622564270803, 15479.164180655978, 8086.682329974453, -187500.02235174447, -187500.02235174447, -0.182, -0.77, -0.628, 192.0, 0.0, 0.0, 0.0, 0.0, 0.0, 0.0, 0.0, 0.0, 0.0, 1.677615187407159E9, 0.0, 2023-02-28 12:13:07.407
229.0, 26688.04993487, -4419.5433759145, 15755.141169445655, -3177.7698609554604, 15216.933514706316, 7795.014416577151, -187500.02235174447, -187500.02235174447, -0.184, -0.768, -0.626, 192.0, 250.0, 64.0, 232.0, 0.0, 236.0, 112.0, 0.0, 0.0, 0.0, 1.677615187411163E9, 0.0, 2023-02-28 12:13:07.411
230.0, 26592.429172090197, -4420.862128837362, 15100.905609238818, -3175.847610932304, 14880.025670531473, 7570.8040679459655, -187500.02235174447, -187500.02235174447, -0.184, -0.768, -0.626, 192.0, 0.0, 0.0, 0.0, 0.0, 0.0, 0.0, 0.0, 0.0, 0.0, 1.6776151874152443E9, 0.0, 2023-02-28 12:13:07.415
231.0, 26686.082981357933, -4419.990410803605, 15527.22043123489, -3186.1517651262006, 15091.473173078677, 7825.032809380628, -187500.02235174447, -187500.02235174447, -0.184, -0.768, -0.626, 192.0, 0.0, 0.0, 0.0, 0.0, 0.0, 0.0, 0.0, 0.0, 0.0, 1.67761518742019E9, 0.0, 2023-02-28 12:13:07.420
232.0, 26795.405363488837, -4419.655134636776, 16250.634640530901, -3191.1809076286445, 15465.708430493883, 8084.804783440207, -187500.02235174447, -187500.02235174447, -0.184, -0.768, -0.626, 192.0, 0.0, 0.0, 0.0, 0.0, 0.0, 0.0, 0.0, 0.0, 0.0, 1.677615187423179E9, 0.0, 2023-02-28 12:13:07.423
233.0, 26722.71749052018, -4416.861166579863, 15901.031005505445, -3181.0108639014798, 15289.68844290834, 7859.163923163882, -187500.02235174447, -187500.02235174447, -0.184, -0.768, -0.626, 192.0, 0.0, 0.0, 0.0, 0.0, 0.0, 0.0, 0.0, 0.0, 0.0, 1.6776151874261873E9, 0.0, 2023-02-28 12:13:07.426
234.0, 26602.800381517456, -4416.883518324318, 15147.017258050117, -3175.4676312765637, 14899.628150418777, 7577.1966668601835, -187500.02235174447, -187500.02235174447, -0.184, -0.768, -0.626, 192.0, 0.0, 0.0, 0.0, 0.0, 0.0, 0.0, 0.0, 0.0, 0.0, 1.6776151874312615E9, 0.0, 2023-02-28 12:13:07.431
235.0, 26658.210356022162, -4418.045809035994, 15382.783458564694, -3184.520087780963, 15012.415052940256, 7759.005756259651, -187500.02235174447, -187500.02235174447, -0.184, -0.768, -0.626, 192.0, 0.0, 0.0, 0.0, 0.0, 0.0, 0.0, 0.0, 0.0, 0.0, 1.677615187435228E9, 0.0, 2023-02-28 12:13:07.435
236.0, 26789.571558186002, -4416.3917799463015, 16180.763087363612, -3191.7397012400274, 15420.088520060603, 8071.639605956031, -187500.02235174447, -187500.02235174447, -0.184, -0.768, -0.626, 192.0, 0.0, 0.0, 0.0, 0.0, 0.0, 0.0, 0.0, 0.0, 0.0, 1.6776151874402459E9, 0.0, 2023-02-28 12:13:07.440
237.0, 26747.77379605458, -4413.798977589486, 16038.851861816867, -3183.804831958393, 15355.08964718457, 7923.38048498398, -187500.02235174447, -187500.02235174447, -0.184, -0.768, -0.626, 192.0, 0.0, 0.0, 0.0, 0.0, 0.0, 0.0, 0.0, 0.0, 0.0, 1.6776151874442341E9, 0.0, 2023-02-28 12:13:07.444
238.0, 26620.45825963715, -4412.793149088997, 15230.255154401679, -3176.4734597770525, 14941.940002672674, 7593.714606012655, -187500.02235174447, -187500.02235174447, -0.184, -0.768, -0.626, 192.0, 0.0, 0.0, 0.0, 0.0, 0.0, 0.0, 0.0, 0.0, 0.0, 1.677615187449228E9, 0.0, 2023-02-28 12:13:07.449
239.0, 26644.732254115614, -4417.0399805355055, 15261.502893150198, -3183.2013348581, 14952.445322566668, 7691.928171149275, -187500.02235174447, -187500.02235174447, -0.182, -0.768, -0.628, 192.0, 250.0, 80.0, 232.0, 0.0, 236.0, 96.0, 0.0, 0.0, 0.0, 1.6776151874522388E9, 0.0, 2023-02-28 12:13:07.452
240.0, 26784.83298836148, -4415.788282846008, 16076.961586113166, -3189.8398029613263, 15374.222740438312, 8040.525977674244, -187500.02235174447, -187500.02235174447, -0.182, -0.768, -0.628, 192.0, 0.0, 0.0, 0.0, 0.0, 0.0, 0.0, 0.0, 0.0, 0.0, 1.677615187456232E9, 0.0, 2023-02-28 12:13:07.456
241.0, 26771.220775988197, -4413.463701422656, 16144.530909601559, -3182.4190238021642, 15418.09921480408, 7982.05381417916, -187500.02235174447, -187500.02235174447, -0.182, -0.768, -0.628, 192.0, 0.0, 0.0, 0.0, 0.0, 0.0, 0.0, 0.0, 0.0, 0.0, 1.6776151874592247E9, 0.0, 2023-02-28 12:13:07.459
242.0, 26630.404785919764, -4414.625992134332, 15337.141196386958, -3173.7018434645947, 15003.027320269028, 7634.931222788242, -187500.02235174447, -187500.02235174447, -0.182, -0.768, -0.628, 192.0, 0.0, 0.0, 0.0, 0.0, 0.0, 0.0, 0.0, 0.0, 0.0, 1.6776151874632623E9, 0.0, 2023-02-28 12:13:07.463
243.0, 26634.137527243798, -4416.30237296848, 15167.80438039355, -3179.9603319120806, 14905.551362699434, 7645.637708382334, -187500.02235174447, -187500.02235174447, -0.182, -0.768, -0.628, 192.0, 0.0, 0.0, 0.0, 0.0, 0.0, 0.0, 0.0, 0.0, 0.0, 1.677615187467286E9, 0.0, 2023-02-28 12:13:07.467
244.0, 26759.32964793797, -4421.1527015152815, 15952.529424730472, -3190.9573901840918, 15305.781698916162, 7996.269523652736, -187500.02235174447, -187500.02235174447, -0.182, -0.768, -0.628, 192.0, 0.0, 0.0, 0.0, 0.0, 0.0, 0.0, 0.0, 0.0, 0.0, 1.6776151874712698E9, 0.0, 2023-02-28 12:13:07.471
245.0, 26776.607546401927, -4421.935012571217, 16229.892221676377, -3188.7892709719267, 15449.682229719429, 8028.053704268183, -187500.02235174447, -187500.02235174447, -0.182, -0.768, -0.628, 192.0, 0.0, 0.0, 0.0, 0.0, 0.0, 0.0, 0.0, 0.0, 0.0, 1.6776151874753273E9, 0.0, 2023-02-28 12:13:07.475
246.0, 26642.474727925626, -4421.555032915478, 15481.421706845966, -3179.133317367234, 15067.959137911696, 7677.131316319861, -187500.02235174447, -187500.02235174447, -0.182, -0.768, -0.628, 192.0, 0.0, 0.0, 0.0, 0.0, 0.0, 0.0, 0.0, 0.0, 0.0, 1.6776151874783163E9, 0.0, 2023-02-28 12:13:07.478
247.0, 26620.301797425964, -4417.77758810253, 15112.550868100032, -3181.167326112667, 14878.684565864154, 7601.7388822721105, -187500.02235174447, -187500.02235174447, -0.182, -0.768, -0.628, 192.0, 0.0, 0.0, 0.0, 0.0, 0.0, 0.0, 0.0, 0.0, 0.0, 1.677615187482416E9, 0.0, 2023-02-28 12:13:07.482
248.0, 26741.85058377392, -4421.197405004193, 15808.472431716018, -3193.4384338186305, 15233.4961573477, 7936.2550897902365, -187500.02235174447, -187500.02235174447, -0.182, -0.768, -0.628, 192.0, 0.0, 0.0, 0.0, 0.0, 0.0, 0.0, 0.0, 0.0, 0.0, 1.67761518748728E9, 0.0, 2023-02-28 12:13:07.487
249.0, 26794.399534988348, -4423.656096894276, 16272.9416814973, -3192.857288462793, 15472.123381152556, 8057.043916826716, -187500.02235174447, -187500.02235174447, -0.182, -0.772, -0.628, 192.0, 250.0, 80.0, 231.0, 224.0, 236.0, 96.0, 0.0, 0.0, 0.0, 1.6776151874912908E9, 0.0, 2023-02-28 12:13:07.491
250.0, 26668.626268938337, -4424.505463183577, 15626.61863882764, -3181.7708232129603, 15146.391409205367, 7732.898918735853, -187500.02235174447, -187500.02235174447, -0.182, -0.772, -0.628, 192.0, 0.0, 0.0, 0.0, 0.0, 0.0, 0.0, 0.0, 0.0, 0.0, 1.677615187495288E9, 0.0, 2023-02-28 12:13:07.495
251.0, 26605.54964608546, -4422.650268393787, 15089.50621956661, -3180.0497388899016, 14866.413458158191, 7577.777812216022, -187500.02235174447, -187500.02235174447, -0.182, -0.772, -0.628, 192.0, 0.0, 0.0, 0.0, 0.0, 0.0, 0.0, 0.0, 0.0, 0.0, 1.677615187499362E9, 0.0, 2023-02-28 12:13:07.499
252.0, 26716.23548462814, -4422.337343971413, 15654.178339741033, -3189.4151198166755, 15156.270880254613, 7876.732394305754, -187500.02235174447, -187500.02235174447, -0.182, -0.772, -0.628, 192.0, 0.0, 0.0, 0.0, 0.0, 0.0, 0.0, 0.0, 0.0, 0.0, 1.6776151875032852E9, 0.0, 2023-02-28 12:13:07.503
253.0, 26794.131314054885, -4424.103131783382, 16276.294443165594, -3192.0973291513124, 15477.577206799651, 8078.166315336981, -187500.02235174447, -187500.02235174447, -0.182, -0.772, -0.628, 192.0, 0.0, 0.0, 0.0, 0.0, 0.0, 0.0, 0.0, 0.0, 0.0, 1.6776151875062983E9, 0.0, 2023-02-28 12:13:07.506
254.0, 26704.813743211478, -4420.012762548061, 15777.537617389873, -3181.9719889130583, 15226.030674699627, 7795.170878788338, -187500.02235174447, -187500.02235174447, -0.182, -0.772, -0.628, 192.0, 0.0, 0.0, 0.0, 0.0, 0.0, 0.0, 0.0, 0.0, 0.0, 1.6776151875102942E9, 0.0, 2023-02-28 12:13:07.510
255.0, 26607.27073040852, -4420.191576503704, 15105.778289530075, -3178.306302822388, 14879.019842030984, 7562.645681219778, -187500.02235174447, -187500.02235174447, -0.182, -0.772, -0.628, 192.0, 0.0, 0.0, 0.0, 0.0, 0.0, 0.0, 0.0, 0.0, 0.0, 1.6776151875143394E9, 0.0, 2023-02-28 12:13:07.514
0.0, 26683.154902834285, -4425.488939939612, 15502.25353267831, -3188.5657535273735, 15075.22345485967, 7808.090187083506, -187500.02235174447, -187500.02235174447, -0.182, -0.772, -0.628, 192.0, 0.0, 0.0, 0.0, 0.0, 0.0, 0.0, 0.0, 0.0, 0.0, 1.6776151875193412E9, 0.0, 2023-02-28 12:13:07.519
1.0, 26792.320822754005, -4428.931108585729, 16240.598707270468, -3194.265448363477, 15453.05734313218, 8078.009853125794, -187500.02235174447, -187500.02235174447, -0.182, -0.772, -0.628, 192.0, 0.0, 0.0, 0.0, 0.0, 0.0, 0.0, 0.0, 0.0, 0.0, 1.6776151875233154E9, 0.0, 2023-02-28 12:13:07.523
2.0, 26724.595037054427, -4425.712457384165, 15925.729683128558, -3185.5482680259074, 15291.856562120505, 7864.707155788798, -187500.02235174447, -187500.02235174447, -0.182, -0.772, -0.628, 192.0, 0.0, 0.0, 0.0, 0.0, 0.0, 0.0, 0.0, 0.0, 0.0, 1.6776151875273287E9, 0.0, 2023-02-28 12:13:07.527
3.0, 26609.192980431675, -4423.901966083285, 15159.310717500535, -3180.161497612178, 14898.912894596207, 7571.8545999353655, -187500.02235174447, -187500.02235174447, -0.182, -0.772, -0.628, 192.0, 0.0, 0.0, 0.0, 0.0, 0.0, 0.0, 0.0, 0.0, 0.0, 1.6776151875303533E9, 0.0, 2023-02-28 12:13:07.530
4.0, 26666.03346658152, -4424.885442839318, 15362.555129832643, -3189.1916023721224, 14996.344148676892, 7740.565567084023, -187500.02235174447, -187500.02235174447, -0.18, -0.768, -0.628, 192.0, 250.0, 96.0, 232.0, 0.0, 236.0, 96.0, 0.0, 0.0, 0.0, 1.6776151875343797E9, 0.0, 2023-02-28 12:13:07.534
5.0, 26795.248901277653, -4425.667753895254, 16165.988584278653, -3196.0088844309907, 15408.309150732655, 8059.793181394718, -187500.02235174447, -187500.02235174447, -0.18, -0.768, -0.628, 192.0, 0.0, 0.0, 0.0, 0.0, 0.0, 0.0, 0.0, 0.0, 0.0, 1.6776151875383224E9, 0.0, 2023-02-28 12:13:07.538
6.0, 26756.893307792343, -4424.214890505658, 16059.594280671392, -3187.5599250268847, 15358.978850719794, 7928.253165275236, -187500.02235174447, -187500.02235174447, -0.18, -0.768, -0.628, 192.0, 0.0, 0.0, 0.0, 0.0, 0.0, 0.0, 0.0, 0.0, 0.0, 1.677615187542362E9, 0.0, 2023-02-28 12:13:07.542
7.0, 26625.867381795335, -4423.566689916455, 15249.723523822251, -3179.6697592341616, 14945.918613185719, 7593.6922542682005, -187500.02235174447, -187500.02235174447, -0.18, -0.768, -0.628, 192.0, 0.0, 0.0, 0.0, 0.0, 0.0, 0.0, 0.0, 0.0, 0.0, 1.6776151875473402E9, 0.0, 2023-02-28 12:13:07.547
8.0, 26643.525259915026, -4425.734809128619, 15247.622459843453, -3186.040006403924, 14939.593069504866, 7681.668720444289, -187500.02235174447, -187500.02235174447, -0.18, -0.768, -0.628, 192.0, 0.0, 0.0, 0.0, 0.0, 0.0, 0.0, 0.0, 0.0, 0.0, 1.6776151875513542E9, 0.0, 2023-02-28 12:13:07.551
9.0, 26780.474398192695, -4424.483111439123, 16062.477655706127, -3193.751358241005, 15356.073123940603, 8031.853500825585, -187500.02235174447, -187500.02235174447, -0.18, -0.768, -0.628, 192.0, 0.0, 0.0, 0.0, 0.0, 0.0, 0.0, 0.0, 0.0, 0.0, 1.6776151875553472E9, 0.0, 2023-02-28 12:13:07.555
10.0, 26782.39664821585, -4419.431617192223, 16165.273328456084, -3187.4481663046085, 15415.059377558158, 7987.82056424863, -187500.02235174447, -187500.02235174447, -0.18, -0.768, -0.628, 192.0, 0.0, 0.0, 0.0, 0.0, 0.0, 0.0, 0.0, 0.0, 0.0, 1.6776151875583792E9, 0.0, 2023-02-28 12:13:07.558
11.0, 26648.666161139747, -4416.660000879765, 15362.733943788284, -3177.322826066354, 15003.899038302785, 7641.36852519137, -187500.02235174447, -187500.02235174447, -0.18, -0.768, -0.628, 192.0, 0.0, 0.0, 0.0, 0.0, 0.0, 0.0, 0.0, 0.0, 0.0, 1.6776151875624075E9, 0.0, 2023-02-28 12:13:07.562
12.0, 26636.484460411604, -4416.30237296848, 15154.706258142742, -3181.3461400683095, 14895.47072595009, 7638.7757228345545, -187500.02235174447, -187500.02235174447, -0.18, -0.768, -0.628, 192.0, 0.0, 0.0, 0.0, 0.0, 0.0, 0.0, 0.0, 0.0, 0.0, 1.6776151875664485E9, 0.0, 2023-02-28 12:13:07.566
13.0, 26766.884537563867, -4419.230451492125, 15925.528517428462, -3192.5443640404183, 15291.901265609416, 7985.853610736563, -187500.02235174447, -187500.02235174447, -0.18, -0.768, -0.628, 192.0, 0.0, 0.0, 0.0, 0.0, 0.0, 0.0, 0.0, 0.0, 0.0, 1.6776151875703938E9, 0.0, 2023-02-28 12:13:07.570
14.0, 26799.965119357723, -4416.905870068774, 16234.608439756446, -3188.8339744608375, 15456.67832573394, 8033.440474681912, -187500.02235174447, -187500.02235174447, -0.18, -0.768, -0.63, 192.0, 250.0, 96.0, 232.0, 0.0, 236.0, 80.0, 0.0, 0.0, 0.0, 1.677615187575503E9, 0.0, 2023-02-28 12:13:07.575
15.0, 26666.592260192905, -4416.682352624221, 15498.051404720713, -3178.5074685224854, 15080.74433574013, 7687.435470513758, -187500.02235174447, -187500.02235174447, -0.18, -0.768, -0.63, 192.0, 0.0, 0.0, 0.0, 0.0, 0.0, 0.0, 0.0, 0.0, 0.0, 1.6776151875793896E9, 0.0, 2023-02-28 12:13:07.579
16.0, 26625.040367250487, -4416.369428201846, 15101.598513316932, -3180.072090634357, 14871.80022857192, 7600.643646793801, -187500.02235174447, -187500.02235174447, -0.18, -0.768, -0.63, 192.0, 0.0, 0.0, 0.0, 0.0, 0.0, 0.0, 0.0, 0.0, 0.0, 1.677615187583392E9, 0.0, 2023-02-28 12:13:07.583
17.0, 26745.940953009245, -4417.9787538026285, 15779.459867413028, -3190.8009279729044, 15214.720692005241, 7932.455293232834, -187500.02235174447, -187500.02235174447, -0.18, -0.768, -0.63, 192.0, 0.0, 0.0, 0.0, 0.0, 0.0, 0.0, 0.0, 0.0, 0.0, 1.677615187586497E9, 0.0, 2023-02-28 12:13:07.586
18.0, 26802.91554962582, -4419.20809974767, 16272.964033241755, -3191.0915006508235, 15470.268186362766, 8068.733879176842, -187500.02235174447, -187500.02235174447, -0.18, -0.768, -0.63, 192.0, 0.0, 0.0, 0.0, 0.0, 0.0, 0.0, 0.0, 0.0, 0.0, 1.6776151875914593E9, 0.0, 2023-02-28 12:13:07.591
19.0, 26690.53097850454, -4417.442311935701, 15649.417418172054, -3180.496773779008, 15154.169816275815, 7750.601500344455, -187500.02235174447, -187500.02235174447, -0.18, -0.768, -0.63, 192.0, 0.0, 0.0, 0.0, 0.0, 0.0, 0.0, 0.0, 0.0, 0.0, 1.677615187596446E9, 0.0, 2023-02-28 12:13:07.596
20.0, 26614.40093688976, -4418.626954391832, 15089.036832933049, -3180.005035400991, 14863.150103467717, 7577.978977916119, -187500.02235174447, -187500.02235174447, -0.18, -0.768, -0.63, 192.0, 0.0, 0.0, 0.0, 0.0, 0.0, 0.0, 0.0, 0.0, 0.0, 1.6776151876004915E9, 0.0, 2023-02-28 12:13:07.600
21.0, 26727.970150467176, -4418.425788691734, 15629.14438595109, -3190.197430872611, 15133.919135799306, 7870.473905858267, -187500.02235174447, -187500.02235174447, -0.18, -0.768, -0.63, 192.0, 0.0, 0.0, 0.0, 0.0, 0.0, 0.0, 0.0, 0.0, 0.0, 1.6776151876034567E9, 0.0, 2023-02-28 12:13:07.603
22.0, 26813.242055564173, -4421.73384687112, 16272.159370441363, -3193.594896029818, 15466.334279338633, 8081.78729793874, -187500.02235174447, -187500.02235174447, -0.18, -0.768, -0.63, 192.0, 0.0, 0.0, 0.0, 0.0, 0.0, 0.0, 0.0, 0.0, 0.0, 1.6776151876075282E9, 0.0, 2023-02-28 12:13:07.607
23.0, 26720.459964330195, -4422.225585249136, 15803.309178746842, -3183.871887191759, 15234.099654447993, 7809.207774306271, -187500.02235174447, -187500.02235174447, -0.18, -0.768, -0.63, 192.0, 0.0, 0.0, 0.0, 0.0, 0.0, 0.0, 0.0, 0.0, 0.0, 1.67761518761247E9, 0.0, 2023-02-28 12:13:07.612
24.0, 26627.36494867384, -4419.521024170044, 15111.410929132811, -3179.5132970229743, 14878.148123997227, 7567.205437088662, -187500.02235174447, -187500.02235174447, -0.184, -0.772, -0.624, 192.0, 250.0, 64.0, 231.0, 224.0, 236.0, 128.0, 0.0, 0.0, 0.0, 1.6776151876165092E9, 0.0, 2023-02-28 12:13:07.616
25.0, 26693.414353539272, -4421.77855036003, 15477.018413188269, -3189.169250627667, 15061.544187253021, 7800.40118699088, -187500.02235174447, -187500.02235174447, -0.184, -0.772, -0.624, 192.0, 0.0, 0.0, 0.0, 0.0, 0.0, 0.0, 0.0, 0.0, 0.0, 1.6776151876194897E9, 0.0, 2023-02-28 12:13:07.619
26.0, 26804.79309616007, -4421.4432741932005, 16227.388826297383, -3193.9972274300135, 15446.687095962418, 8079.865047915584, -187500.02235174447, -187500.02235174447, -0.184, -0.772, -0.624, 192.0, 0.0, 0.0, 0.0, 0.0, 0.0, 0.0, 0.0, 0.0, 0.0, 1.6776151876225152E9, 0.0, 2023-02-28 12:13:07.622
27.0, 26732.01581621359, -4420.862128837362, 15946.807378149913, -3185.7941372149157, 15304.485297737754, 7874.296054160125, -187500.02235174447, -187500.02235174447, -0.184, -0.772, -0.624, 192.0, 0.0, 0.0, 0.0, 0.0, 0.0, 0.0, 0.0, 0.0, 0.0, 1.6776151876264763E9, 0.0, 2023-02-28 12:13:07.626
28.0, 26621.84406779338, -4415.944745057195, 15170.24072053918, -3178.842744689315, 14906.33367375537, 7577.040204648996, -187500.02235174447, -187500.02235174447, -0.184, -0.772, -0.624, 192.0, 0.0, 0.0, 0.0, 0.0, 0.0, 0.0, 0.0, 0.0, 0.0, 1.6776151876315048E9, 0.0, 2023-02-28 12:13:07.631
29.0, 26674.258908541073, -4415.609468890366, 15339.063446410115, -3186.5093930374856, 14989.035128240006, 7735.29055539257, -187500.02235174447, -187500.02235174447, -0.184, -0.772, -0.624, 192.0, 0.0, 0.0, 0.0, 0.0, 0.0, 0.0, 0.0, 0.0, 0.0, 1.6776151876354952E9, 0.0, 2023-02-28 12:13:07.635
30.0, 26805.955386871745, -4416.235317735114, 16145.089703212941, -3194.48896580803, 15399.882543073005, 8059.9943470948165, -187500.02235174447, -187500.02235174447, -0.184, -0.772, -0.624, 192.0, 0.0, 0.0, 0.0, 0.0, 0.0, 0.0, 0.0, 0.0, 0.0, 1.6776151876394837E9, 0.0, 2023-02-28 12:13:07.639
31.0, 26759.217889215695, -4419.319858469947, 16074.391135500806, -3188.074015149357, 15368.076010713103, 7938.043229346661, -187500.02235174447, -187500.02235174447, -0.184, -0.772, -0.624, 192.0, 0.0, 0.0, 0.0, 0.0, 0.0, 0.0, 0.0, 0.0, 0.0, 1.6776151876425393E9, 0.0, 2023-02-28 12:13:07.642
32.0, 26626.26971319553, -4419.364561958857, 15263.268680962168, -3179.3568348117874, 14951.439494066179, 7602.700007283689, -187500.02235174447, -187500.02235174447, -0.184, -0.772, -0.624, 192.0, 0.0, 0.0, 0.0, 0.0, 0.0, 0.0, 0.0, 0.0, 0.0, 1.6776151876464796E9, 0.0, 2023-02-28 12:13:07.646
33.0, 26648.621457650836, -4419.856300336874, 15226.880040988928, -3184.654198247695, 14927.567830987911, 7675.276121530071, -187500.02235174447, -187500.02235174447, -0.184, -0.772, -0.624, 192.0, 0.0, 0.0, 0.0, 0.0, 0.0, 0.0, 0.0, 0.0, 0.0, 1.6776151876505136E9, 0.0, 2023-02-28 12:13:07.650
34.0, 26785.39178197286, -4419.431617192223, 16036.281411204507, -3192.656122762695, 15341.879766211483, 8027.4725589123445, -187500.02235174447, -187500.02235174447, -0.182, -0.774, -0.628, 192.0, 250.0, 80.0, 231.0, 208.0, 236.0, 96.0, 0.0, 0.0, 0.0, 1.6776151876545017E9, 0.0, 2023-02-28 12:13:07.654
35.0, 26775.333496967974, -4424.930146328228, 16175.421020438795, -3189.8398029613263, 15412.645389156985, 7995.621323063532, -187500.02235174447, -187500.02235174447, -0.182, -0.774, -0.628, 192.0, 0.0, 0.0, 0.0, 0.0, 0.0, 0.0, 0.0, 0.0, 0.0, 1.6776151876585076E9, 0.0, 2023-02-28 12:13:07.658
36.0, 26635.45628016666, -4429.959288830672, 15383.677528342907, -3183.5366110249297, 15009.330512205424, 7642.12848450285, -187500.02235174447, -187500.02235174447, -0.182, -0.774, -0.628, 192.0, 0.0, 0.0, 0.0, 0.0, 0.0, 0.0, 0.0, 0.0, 0.0, 1.6776151876635287E9, 0.0, 2023-02-28 12:13:07.663
37.0, 26625.30858818395, -4430.808655119974, 15146.86079583893, -3188.1187186382676, 14883.825467088875, 7627.510443629079, -187500.02235174447, -187500.02235174447, -0.182, -0.774, -0.628, 192.0, 0.0, 0.0, 0.0, 0.0, 0.0, 0.0, 0.0, 0.0, 0.0, 1.6776151876675365E9, 0.0, 2023-02-28 12:13:07.667
38.0, 26750.366598411394, -4435.279004011036, 15904.584932873839, -3199.2051838881, 15271.918806066371, 7972.107287896549, -187500.02235174447, -187500.02235174447, -0.182, -0.774, -0.628, 192.0, 0.0, 0.0, 0.0, 0.0, 0.0, 0.0, 0.0, 0.0, 0.0, 1.677615187670502E9, 0.0, 2023-02-28 12:13:07.670
39.0, 26782.709572638225, -4436.731867400631, 16245.627849772913, -3197.0147129314796, 15451.000982642292, 8035.9885735498165, -187500.02235174447, -187500.02235174447, -0.182, -0.774, -0.628, 192.0, 0.0, 0.0, 0.0, 0.0, 0.0, 0.0, 0.0, 0.0, 0.0, 1.6776151876745148E9, 0.0, 2023-02-28 12:13:07.674
40.0, 26660.378475234327, -4432.842663865407, 15526.840451579148, -3186.6658552486724, 15086.488734065144, 7694.498621761635, -187500.02235174447, -187500.02235174447, -0.182, -0.774, -0.628, 192.0, 0.0, 0.0, 0.0, 0.0, 0.0, 0.0, 0.0, 0.0, 0.0, 1.6776151876785228E9, 0.0, 2023-02-28 12:13:07.678
41.0, 26613.64097757828, -4430.808655119974, 15105.063033707505, -3188.051663404902, 14868.112190736794, 7593.8710682238425, -187500.02235174447, -187500.02235174447, -0.182, -0.774, -0.628, 192.0, 0.0, 0.0, 0.0, 0.0, 0.0, 0.0, 0.0, 0.0, 0.0, 1.6776151876825066E9, 0.0, 2023-02-28 12:13:07.682
42.0, 26740.19655468423, -4433.222643521148, 15792.289768730376, -3200.3451228553204, 15215.927686205827, 7932.947031610851, -187500.02235174447, -187500.02235174447, -0.182, -0.774, -0.628, 192.0, 0.0, 0.0, 0.0, 0.0, 0.0, 0.0, 0.0, 0.0, 0.0, 1.6776151876865103E9, 0.0, 2023-02-28 12:13:07.686
43.0, 26799.540436213072, -4436.128370300337, 16269.521864595637, -3201.1274339112565, 15466.244872360812, 8053.959376091883, -187500.02235174447, -187500.02235174447, -0.182, -0.774, -0.628, 192.0, 0.0, 0.0, 0.0, 0.0, 0.0, 0.0, 0.0, 0.0, 0.0, 1.6776151876915708E9, 0.0, 2023-02-28 12:13:07.691
44.0, 26674.214205052165, -4437.648288923298, 15621.56714458074, -3191.270314606466, 15130.298153197546, 7728.294459378059, -187500.02235174447, -187500.02235174447, -0.192, -0.77, -0.624, 192.0, 250.0, 0.0, 231.0, 240.0, 236.0, 128.0, 0.0, 0.0, 0.0, 1.6776151876956885E9, 0.0, 2023-02-28 12:13:07.695
45.0, 26600.74402102757, -4439.59289069091, 15104.772461029586, -3191.4044250731977, 14857.361001653791, 7576.771983715533, -187500.02235174447, -187500.02235174447, -0.192, -0.77, -0.624, 192.0, 0.0, 0.0, 0.0, 0.0, 0.0, 0.0, 0.0, 0.0, 0.0, 1.6776151876986065E9, 0.0, 2023-02-28 12:13:07.698
46.0, 26710.37932758085, -4441.425733736245, 15676.351270240697, -3201.7309310115497, 15151.644069152364, 7872.999652981717, -187500.02235174447, -187500.02235174447, -0.192, -0.77, -0.624, 192.0, 0.0, 0.0, 0.0, 0.0, 0.0, 0.0, 0.0, 0.0, 0.0, 1.6776151877025015E9, 0.0, 2023-02-28 12:13:07.702
47.0, 26793.72898265469, -4442.520969214555, 16286.911521781865, -3203.429663590153, 15473.799761986706, 8068.532713476743, -187500.02235174447, -187500.02235174447, -0.192, -0.77, -0.624, 192.0, 0.0, 0.0, 0.0, 0.0, 0.0, 0.0, 0.0, 0.0, 0.0, 1.677615187706518E9, 0.0, 2023-02-28 12:13:07.706
48.0, 26695.649527984802, -4439.078800568438, 15772.240253953965, -3192.29849485141, 15214.58658153851, 7782.564494915545, -187500.02235174447, -187500.02235174447, -0.192, -0.77, -0.624, 192.0, 0.0, 0.0, 0.0, 0.0, 0.0, 0.0, 0.0, 0.0, 0.0, 1.6776151877105863E9, 0.0, 2023-02-28 12:13:07.710
49.0, 26600.341689627374, -4436.284832511525, 15110.092176209948, -3188.945733183114, 14871.152027982716, 7556.186027072195, -187500.02235174447, -187500.02235174447, -0.192, -0.77, -0.624, 192.0, 0.0, 0.0, 0.0, 0.0, 0.0, 0.0, 0.0, 0.0, 0.0, 1.677615187714553E9, 0.0, 2023-02-28 12:13:07.714
50.0, 26695.113086117875, -4434.206120277181, 15521.900716054526, -3197.3276373538542, 15077.190408371736, 7806.324399271536, -187500.02235174447, -187500.02235174447, -0.192, -0.77, -0.624, 192.0, 0.0, 0.0, 0.0, 0.0, 0.0, 0.0, 0.0, 0.0, 0.0, 1.6776151877196026E9, 0.0, 2023-02-28 12:13:07.719
51.0, 26819.16526784483, -4432.932070843229, 16251.036971931098, -3201.082730422346, 15458.600575757097, 8074.50062924631, -187500.02235174447, -187500.02235174447, -0.192, -0.77, -0.624, 192.0, 0.0, 0.0, 0.0, 0.0, 0.0, 0.0, 0.0, 0.0, 0.0, 1.677615187722592E9, 0.0, 2023-02-28 12:13:07.722
52.0, 26739.257781417105, -4431.523910942544, 15914.307941711897, -3191.7620529844826, 15289.397870230421, 7854.850036484008, -187500.02235174447, -187500.02235174447, -0.192, -0.77, -0.624, 192.0, 0.0, 0.0, 0.0, 0.0, 0.0, 0.0, 0.0, 0.0, 0.0, 1.6776151877265792E9, 0.0, 2023-02-28 12:13:07.726
53.0, 26614.40093688976, -4430.0710475529495, 15153.879243597896, -3185.660026748184, 14895.940112583652, 7568.345376055882, -187500.02235174447, -187500.02235174447, -0.192, -0.77, -0.624, 192.0, 0.0, 0.0, 0.0, 0.0, 0.0, 0.0, 0.0, 0.0, 0.0, 1.6776151877307763E9, 0.0, 2023-02-28 12:13:07.730
54.0, 26671.599050950892, -4430.272213253047, 15380.369470163521, -3192.946695440614, 15008.682311616221, 7748.478084621202, -187500.02235174447, -187500.02235174447, -0.184, -0.77, -0.624, 192.0, 250.0, 64.0, 231.0, 240.0, 236.0, 128.0, 0.0, 0.0, 0.0, 1.677615187734626E9, 0.0, 2023-02-28 12:13:07.734
55.0, 26795.181846044285, -4430.406323719779, 16177.387973950861, -3199.004018188002, 15418.747415393284, 8063.749440163308, -187500.02235174447, -187500.02235174447, -0.184, -0.77, -0.624, 192.0, 0.0, 0.0, 0.0, 0.0, 0.0, 0.0, 0.0, 0.0, 0.0, 1.6776151877386243E9, 0.0, 2023-02-28 12:13:07.738
56.0, 26752.937049023756, -4428.417018463257, 16042.048161273977, -3190.6668175061727, 15352.809769250129, 7914.931525579874, -187500.02235174447, -187500.02235174447, -0.184, -0.77, -0.624, 192.0, 0.0, 0.0, 0.0, 0.0, 0.0, 0.0, 0.0, 0.0, 0.0, 1.6776151877426102E9, 0.0, 2023-02-28 12:13:07.742
57.0, 26628.929570785713, -4428.618184163354, 15235.641924815409, -3183.6483697472063, 14935.547403758455, 7583.49985879658, -187500.02235174447, -187500.02235174447, -0.184, -0.77, -0.624, 192.0, 0.0, 0.0, 0.0, 0.0, 0.0, 0.0, 0.0, 0.0, 0.0, 1.6776151877476368E9, 0.0, 2023-02-28 12:13:07.747
58.0, 26659.774978134035, -4428.573480674444, 15263.648660617908, -3190.5774105283513, 14944.532805029488, 7680.193505310239, -187500.02235174447, -187500.02235174447, -0.184, -0.77, -0.624, 192.0, 0.0, 0.0, 0.0, 0.0, 0.0, 0.0, 0.0, 0.0, 0.0, 1.677615187750636E9, 0.0, 2023-02-28 12:13:07.750
59.0, 26794.623052432904, -4429.646364408299, 16073.966452356155, -3198.802852487904, 15361.370487376511, 8027.427855423433, -187500.02235174447, -187500.02235174447, -0.184, -0.77, -0.624, 192.0, 0.0, 0.0, 0.0, 0.0, 0.0, 0.0, 0.0, 0.0, 0.0, 1.6776151877536185E9, 0.0, 2023-02-28 12:13:07.753
60.0, 26778.64155514736, -4431.4792074536335, 16152.890462027844, -3192.7455297405163, 15407.437432698898, 7969.961520428839, -187500.02235174447, -187500.02235174447, -0.184, -0.77, -0.624, 192.0, 0.0, 0.0, 0.0, 0.0, 0.0, 0.0, 0.0, 0.0, 0.0, 1.6776151877586358E9, 0.0, 2023-02-28 12:13:07.758
61.0, 26645.04517853799, -4429.936937086218, 15349.65817328193, -3183.178983113645, 14996.25474169907, 7616.379274890337, -187500.02235174447, -187500.02235174447, -0.184, -0.77, -0.624, 192.0, 0.0, 0.0, 0.0, 0.0, 0.0, 0.0, 0.0, 0.0, 0.0, 1.6776151877626364E9, 0.0, 2023-02-28 12:13:07.762
62.0, 26646.475690183128, -4432.954422587683, 15172.09591532897, -3188.3198843383652, 14899.516391696501, 7628.404513407292, -187500.02235174447, -187500.02235174447, -0.184, -0.77, -0.624, 192.0, 0.0, 0.0, 0.0, 0.0, 0.0, 0.0, 0.0, 0.0, 0.0, 1.6776151877666276E9, 0.0, 2023-02-28 12:13:07.766
63.0, 26793.05843032103, -4438.050620323494, 15945.9133083717, -3199.741625755027, 15297.198629045324, 7974.34246234208, -187500.02235174447, -187500.02235174447, -0.184, -0.77, -0.624, 192.0, 0.0, 0.0, 0.0, 0.0, 0.0, 0.0, 0.0, 0.0, 0.0, 1.6776151877706735E9, 0.0, 2023-02-28 12:13:07.770
64.0, 26817.578293988503, -4436.508349956078, 16232.55207926656, -3195.785366986438, 15454.912537921971, 8008.741797058797, -187500.02235174447, -187500.02235174447, -0.188, -0.766, -0.622, 192.0, 250.0, 32.0, 232.0, 16.0, 236.0, 144.0, 0.0, 0.0, 0.0, 1.677615187775643E9, 0.0, 2023-02-28 12:13:07.775
65.0, 26668.425103238238, -4435.010783077572, 15488.194285415922, -3184.6989017366054, 15075.961062426695, 7665.262540014093, -187500.02235174447, -187500.02235174447, -0.188, -0.766, -0.622, 192.0, 0.0, 0.0, 0.0, 0.0, 0.0, 0.0, 0.0, 0.0, 0.0, 1.677615187778665E9, 0.0, 2023-02-28 12:13:07.778
66.0, 26624.861553294846, -4435.480169711133, 15116.216554190703, -3187.8281459603486, 14876.717612352088, 7584.908018697264, -187500.02235174447, -187500.02235174447, -0.188, -0.766, -0.622, 192.0, 0.0, 0.0, 0.0, 0.0, 0.0, 0.0, 0.0, 0.0, 0.0, 1.6776151877816868E9, 0.0, 2023-02-28 12:13:07.781
67.0, 26756.178051969775, -4438.005916834583, 15801.31987349032, -3200.6356955332394, 15223.504927576178, 7915.825595358086, -187500.02235174447, -187500.02235174447, -0.188, -0.766, -0.622, 192.0, 0.0, 0.0, 0.0, 0.0, 0.0, 0.0, 0.0, 0.0, 0.0, 1.677615187786651E9, 0.0, 2023-02-28 12:13:07.786
68.0, 26846.45674782476, -4438.587062190421, 16278.596672844491, -3200.725102511061, 15475.364384098577, 8041.844730597107, -187500.02235174447, -187500.02235174447, -0.188, -0.766, -0.622, 192.0, 0.0, 0.0, 0.0, 0.0, 0.0, 0.0, 0.0, 0.0, 0.0, 1.6776151877906353E9, 0.0, 2023-02-28 12:13:07.790
69.0, 26708.077097901954, -4436.731867400631, 15640.968458767948, -3189.616285516773, 15151.644069152364, 7716.358627838926, -187500.02235174447, -187500.02235174447, -0.188, -0.766, -0.622, 192.0, 0.0, 0.0, 0.0, 0.0, 0.0, 0.0, 0.0, 0.0, 0.0, 1.677615187794774E9, 0.0, 2023-02-28 12:13:07.794
70.0, 26606.533122841494, -4439.25761452408, 15096.099984180926, -3190.1527273837005, 14868.626280859267, 7550.598090958369, -187500.02235174447, -187500.02235174447, -0.188, -0.766, -0.622, 192.0, 0.0, 0.0, 0.0, 0.0, 0.0, 0.0, 0.0, 0.0, 0.0, 1.6776151877987115E9, 0.0, 2023-02-28 12:13:07.798
71.0, 26710.602845025405, -4444.5102744710775, 15649.775046083338, -3202.3791316007537, 15149.163025517826, 7844.03179216764, -187500.02235174447, -187500.02235174447, -0.188, -0.766, -0.622, 192.0, 0.0, 0.0, 0.0, 0.0, 0.0, 0.0, 0.0, 0.0, 0.0, 1.6776151878036788E9, 0.0, 2023-02-28 12:13:07.803
72.0, 26799.138104812875, -4443.996184348605, 16282.865856035454, -3204.2119746460885, 15480.639395790029, 8052.327698746646, -187500.02235174447, -187500.02235174447, -0.188, -0.766, -0.622, 192.0, 0.0, 0.0, 0.0, 0.0, 0.0, 0.0, 0.0, 0.0, 0.0, 1.6776151878066435E9, 0.0, 2023-02-28 12:13:07.806
73.0, 26701.32687107645, -4440.218739535659, 15792.334472219287, -3192.6337710182397, 15232.78090152513, 7778.429422191313, -187500.02235174447, -187500.02235174447, -0.188, -0.766, -0.622, 192.0, 0.0, 0.0, 0.0, 0.0, 0.0, 0.0, 0.0, 0.0, 0.0, 1.6776151878107677E9, 0.0, 2023-02-28 12:13:07.810
74.0, 26609.70707055415, -4441.135161058326, 15112.304998911024, -3188.9233814386585, 14875.5106181515, 7543.44553273267, -187500.02235174447, -187500.02235174447, -0.186, -0.766, -0.622, 192.0, 250.0, 48.0, 232.0, 16.0, 236.0, 144.0, 0.0, 0.0, 0.0, 1.677615187814675E9, 0.0, 2023-02-28 12:13:07.814
75.0, 26701.125705376355, -4445.78432390503, 15500.465393121887, -3199.115776910279, 15066.059239632994, 7778.585884402501, -187500.02235174447, -187500.02235174447, -0.186, -0.766, -0.622, 192.0, 0.0, 0.0, 0.0, 0.0, 0.0, 0.0, 0.0, 0.0, 0.0, 1.677615187818686E9, 0.0, 2023-02-28 12:13:07.818
76.0, 26817.243017821675, -4449.137085573326, 16245.113759650441, -3205.8213002468706, 15453.169101854457, 8048.036163811227, -187500.02235174447, -187500.02235174447, -0.186, -0.766, -0.622, 192.0, 0.0, 0.0, 0.0, 0.0, 0.0, 0.0, 0.0, 0.0, 0.0, 1.6776151878226657E9, 0.0, 2023-02-28 12:13:07.822
77.0, 26744.242220430642, -4445.4490477382005, 15935.25152626652, -3194.936000697136, 15299.45615523531, 7836.722771730754, -187500.02235174447, -187500.02235174447, -0.186, -0.766, -0.622, 192.0, 0.0, 0.0, 0.0, 0.0, 0.0, 0.0, 0.0, 0.0, 0.0, 1.6776151878266687E9, 0.0, 2023-02-28 12:13:07.826
78.0, 26646.9897803056, -4440.464608724667, 15161.456484968245, -3187.001131415502, 14897.95176958463, 7540.517454209024, -187500.02235174447, -187500.02235174447, -0.186, -0.766, -0.622, 192.0, 0.0, 0.0, 0.0, 0.0, 0.0, 0.0, 0.0, 0.0, 0.0, 1.6776151878307307E9, 0.0, 2023-02-28 12:13:07.830
79.0, 26699.89635943131, -4443.906777370784, 15358.46476059732, -3194.86894546377, 14997.193514966193, 7712.0894446479615, -187500.02235174447, -187500.02235174447, -0.186, -0.766, -0.622, 192.0, 0.0, 0.0, 0.0, 0.0, 0.0, 0.0, 0.0, 0.0, 0.0, 1.677615187834735E9, 0.0, 2023-02-28 12:13:07.834
80.0, 26819.54524750057, -4443.772666904052, 16162.792284821546, -3202.0885589228346, 15411.617208912041, 8032.077018270138, -187500.02235174447, -187500.02235174447, -0.186, -0.766, -0.622, 192.0, 0.0, 0.0, 0.0, 0.0, 0.0, 0.0, 0.0, 0.0, 0.0, 1.677615187837708E9, 0.0, 2023-02-28 12:13:07.837
81.0, 26784.38595347237, -4439.659945924276, 16060.354239982873, -3192.1420326402226, 15362.733943788284, 7898.145365493938, -187500.02235174447, -187500.02235174447, -0.186, -0.766, -0.622, 192.0, 0.0, 0.0, 0.0, 0.0, 0.0, 0.0, 0.0, 0.0, 0.0, 1.6776151878427126E9, 0.0, 2023-02-28 12:13:07.842
82.0, 26646.90037332778, -4436.418942978256, 15247.644811587908, -3182.754299968994, 14951.215976621626, 7560.499913752069, -187500.02235174447, -187500.02235174447, -0.186, -0.766, -0.622, 192.0, 0.0, 0.0, 0.0, 0.0, 0.0, 0.0, 0.0, 0.0, 0.0, 1.6776151878467386E9, 0.0, 2023-02-28 12:13:07.846
83.0, 26664.692361914204, -4436.374239489346, 15241.609840584975, -3189.1245471387565, 14945.896261441263, 7645.771818849065, -187500.02235174447, -187500.02235174447, -0.186, -0.766, -0.622, 192.0, 0.0, 0.0, 0.0, 0.0, 0.0, 0.0, 0.0, 0.0, 0.0, 1.677615187850744E9, 0.0, 2023-02-28 12:13:07.850
84.0, 26821.467497523725, -4436.977736589639, 16049.737161366602, -3197.7076170095943, 15360.968155976316, 7997.610628320054, -187500.02235174447, -187500.02235174447, -0.186, -0.77, -0.626, 192.0, 250.0, 48.0, 231.0, 240.0, 236.0, 112.0, 0.0, 0.0, 0.0, 1.677615187854692E9, 0.0, 2023-02-28 12:13:07.854
85.0, 26818.204142833252, -4434.161416788271, 16160.512406887105, -3190.4656518060747, 15424.849441629583, 7957.735116211787, -187500.02235174447, -187500.02235174447, -0.186, -0.77, -0.626, 192.0, 0.0, 0.0, 0.0, 0.0, 0.0, 0.0, 0.0, 0.0, 0.0, 1.6776151878586876E9, 0.0, 2023-02-28 12:13:07.858
86.0, 26680.696210944203, -4429.892233597307, 15364.32091764461, -3181.457898790586, 15013.756157607575, 7598.654341537278, -187500.02235174447, -187500.02235174447, -0.186, -0.77, -0.626, 192.0, 0.0, 0.0, 0.0, 0.0, 0.0, 0.0, 0.0, 0.0, 0.0, 1.6776151878617246E9, 0.0, 2023-02-28 12:13:07.861
87.0, 26673.56600446296, -4437.134198800826, 15156.360287232434, -3188.2528291049994, 14899.203467274127, 7594.228696135127, -187500.02235174447, -187500.02235174447, -0.186, -0.77, -0.626, 192.0, 0.0, 0.0, 0.0, 0.0, 0.0, 0.0, 0.0, 0.0, 0.0, 1.677615187865814E9, 0.0, 2023-02-28 12:13:07.865
88.0, 26826.876619681912, -4439.771704646552, 15918.599476647316, -3197.6629135206836, 15291.610692931497, 7946.514540495222, -187500.02235174447, -187500.02235174447, -0.186, -0.77, -0.626, 192.0, 0.0, 0.0, 0.0, 0.0, 0.0, 0.0, 0.0, 0.0, 0.0, 1.6776151878697608E9, 0.0, 2023-02-28 12:13:07.869
89.0, 26872.876509770933, -4433.177940032237, 16237.827090958011, -3193.259619862988, 15461.126322880546, 7995.263695152247, -187500.02235174447, -187500.02235174447, -0.186, -0.77, -0.626, 192.0, 0.0, 0.0, 0.0, 0.0, 0.0, 0.0, 0.0, 0.0, 0.0, 1.677615187874744E9, 0.0, 2023-02-28 12:13:07.874
90.0, 26691.313289560472, -4427.992335318606, 15507.081509480657, -3182.039044146424, 15088.723908510676, 7646.1070950158955, -187500.02235174447, -187500.02235174447, -0.186, -0.77, -0.626, 192.0, 0.0, 0.0, 0.0, 0.0, 0.0, 0.0, 0.0, 0.0, 0.0, 1.6776151878787162E9, 0.0, 2023-02-28 12:13:07.878
91.0, 26644.374626204328, -4429.109922541371, 15104.548943585032, -3184.430680803142, 14875.08593500685, 7554.062611348941, -187500.02235174447, -187500.02235174447, -0.186, -0.77, -0.626, 192.0, 0.0, 0.0, 0.0, 0.0, 0.0, 0.0, 0.0, 0.0, 0.0, 1.6776151878827672E9, 0.0, 2023-02-28 12:13:07.882
92.0, 26799.383974001885, -4433.267347010058, 15768.395753907653, -3195.651256519706, 15208.037520413105, 7887.79650781113, -187500.02235174447, -187500.02235174447, -0.186, -0.77, -0.626, 192.0, 0.0, 0.0, 0.0, 0.0, 0.0, 0.0, 0.0, 0.0, 0.0, 1.6776151878858345E9, 0.0, 2023-02-28 12:13:07.885
93.0, 26874.575242349536, -4432.999126076595, 16275.713297809756, -3197.037064675935, 15473.464485819875, 8018.353047174579, -187500.02235174447, -187500.02235174447, -0.186, -0.77, -0.626, 192.0, 0.0, 0.0, 0.0, 0.0, 0.0, 0.0, 0.0, 0.0, 0.0, 1.6776151878897407E9, 0.0, 2023-02-28 12:13:07.889
94.0, 26763.710589851213, -4427.567652173955, 15659.81097934377, -3185.660026748184, 15158.126075044403, 7694.9456566507415, -187500.02235174447, -187500.02235174447, -0.186, -0.772, -0.624, 192.0, 250.0, 48.0, 231.0, 224.0, 236.0, 128.0, 0.0, 0.0, 0.0, 1.6776151878937764E9, 0.0, 2023-02-28 12:13:07.893
95.0, 26663.463015969162, -4431.143931286804, 15091.584931800955, -3185.8388407038265, 14862.188978456137, 7519.126834765296, -187500.02235174447, -187500.02235174447, -0.186, -0.772, -0.624, 192.0, 0.0, 0.0, 0.0, 0.0, 0.0, 0.0, 0.0, 0.0, 0.0, 1.6776151878988028E9, 0.0, 2023-02-28 12:13:07.898
96.0, 26781.703744137736, -4431.4792074536335, 15619.153156179567, -3196.590029786829, 15128.577068874487, 7804.871535881942, -187500.02235174447, -187500.02235174447, -0.186, -0.772, -0.624, 192.0, 0.0, 0.0, 0.0, 0.0, 0.0, 0.0, 0.0, 0.0, 0.0, 1.6776151879027948E9, 0.0, 2023-02-28 12:13:07.902
97.0, 26882.845387798, -4434.094361554904, 16275.556835598569, -3199.451053077108, 15473.39743058651, 8023.11396874356, -187500.02235174447, -187500.02235174447, -0.186, -0.772, -0.624, 192.0, 0.0, 0.0, 0.0, 0.0, 0.0, 0.0, 0.0, 0.0, 0.0, 1.6776151879067905E9, 0.0, 2023-02-28 12:13:07.906
98.0, 26762.838871817457, -4433.3567539878795, 15813.009835840445, -3189.3480645833097, 15238.122968449947, 7756.457657391747, -187500.02235174447, -187500.02235174447, -0.186, -0.772, -0.624, 192.0, 0.0, 0.0, 0.0, 0.0, 0.0, 0.0, 0.0, 0.0, 0.0, 1.6776151879107783E9, 0.0, 2023-02-28 12:13:07.910
99.0, 26700.075173386955, -4434.0049545770835, 15114.070786722994, -3185.101233136801, 14869.363888426291, 7512.823642828899, -187500.02235174447, -187500.02235174447, -0.186, -0.772, -0.624, 192.0, 0.0, 0.0, 0.0, 0.0, 0.0, 0.0, 0.0, 0.0, 0.0, 1.6776151879138076E9, 0.0, 2023-02-28 12:13:07.913
100.0, 26794.801866388545, -4436.776570889541, 15470.11172415158, -3195.226573375055, 15048.870748146863, 7736.6763635488, -187500.02235174447, -187500.02235174447, -0.186, -0.772, -0.624, 192.0, 0.0, 0.0, 0.0, 0.0, 0.0, 0.0, 0.0, 0.0, 0.0, 1.677615187917853E9, 0.0, 2023-02-28 12:13:07.917
101.0, 26830.050567394566, -4435.323707499946, 16229.579297254002, -3201.01567518898, 15441.72500869334, 8016.140224473504, -187500.02235174447, -187500.02235174447, -0.186, -0.772, -0.624, 192.0, 0.0, 0.0, 0.0, 0.0, 0.0, 0.0, 0.0, 0.0, 0.0, 1.6776151879218204E9, 0.0, 2023-02-28 12:13:07.921
102.0, 26779.69208713676, -4438.743524401609, 15955.368096276296, -3194.198393130111, 15298.517381968188, 7810.9959138626955, -187500.02235174447, -187500.02235174447, -0.186, -0.772, -0.624, 192.0, 0.0, 0.0, 0.0, 0.0, 0.0, 0.0, 0.0, 0.0, 0.0, 1.6776151879268003E9, 0.0, 2023-02-28 12:13:07.926
103.0, 26699.47167628666, -4444.107943070882, 15175.538083975087, -3190.7338727395386, 14884.406612444713, 7498.429119399681, -187500.02235174447, -187500.02235174447, -0.186, -0.772, -0.624, 192.0, 0.0, 0.0, 0.0, 0.0, 0.0, 0.0, 0.0, 0.0, 0.0, 1.6776151879308677E9, 0.0, 2023-02-28 12:13:07.930
104.0, 26725.958493466198, -4443.459742481678, 15340.851585966539, -3199.2945908659212, 14960.983688948596, 7654.041964297529, -187500.02235174447, -187500.02235174447, -0.184, -0.772, -0.624, 192.0, 250.0, 64.0, 231.0, 224.0, 236.0, 128.0, 0.0, 0.0, 0.0, 1.6776151879348989E9, 0.0, 2023-02-28 12:13:07.934
105.0, 26798.244035034662, -4440.866940124863, 16149.358886403907, -3207.3412188698317, 15379.631862596496, 7981.383261845502, -187500.02235174447, -187500.02235174447, -0.184, -0.772, -0.624, 192.0, 0.0, 0.0, 0.0, 0.0, 0.0, 0.0, 0.0, 0.0, 0.0, 1.677615187938834E9, 0.0, 2023-02-28 12:13:07.938
106.0, 26782.508406938126, -4431.747428387097, 16076.51455122406, -3198.042893176424, 15349.725228515295, 7854.604167295, -187500.02235174447, -187500.02235174447, -0.184, -0.772, -0.624, 192.0, 0.0, 0.0, 0.0, 0.0, 0.0, 0.0, 0.0, 0.0, 0.0, 1.6776151879418423E9, 0.0, 2023-02-28 12:13:07.941
107.0, 26712.793315982024, -4430.16045453077, 15262.97810828425, -3189.3480645833097, 14923.47746175259, 7510.879041061287, -187500.02235174447, -187500.02235174447, -0.184, -0.772, -0.624, 192.0, 0.0, 0.0, 0.0, 0.0, 0.0, 0.0, 0.0, 0.0, 0.0, 1.677615187945822E9, 0.0, 2023-02-28 12:13:07.945
108.0, 26718.91769396278, -4432.283870254025, 15222.63320954242, -3193.9972274300135, 14898.599970173833, 7577.710756982656, -187500.02235174447, -187500.02235174447, -0.184, -0.772, -0.624, 192.0, 0.0, 0.0, 0.0, 0.0, 0.0, 0.0, 0.0, 0.0, 0.0, 1.677615187949852E9, 0.0, 2023-02-28 12:13:07.949
109.0, 26802.267349036618, -4429.534605686022, 16024.591448854382, -3201.39565484472, 15314.945914142838, 7926.8673571190075, -187500.02235174447, -187500.02235174447, -0.184, -0.772, -0.624, 192.0, 0.0, 0.0, 0.0, 0.0, 0.0, 0.0, 0.0, 0.0, 0.0, 1.6776151879538262E9, 0.0, 2023-02-28 12:13:07.953
110.0, 26795.15949429983, -4422.605564904877, 16164.379258677873, -3192.857288462793, 15399.033176783703, 7903.599191141033, -187500.02235174447, -187500.02235174447, -0.184, -0.772, -0.624, 192.0, 0.0, 0.0, 0.0, 0.0, 0.0, 0.0, 0.0, 0.0, 0.0, 1.6776151879588673E9, 0.0, 2023-02-28 12:13:07.958
111.0, 26691.33564130493, -4412.971963044639, 15369.551225847154, -3180.3403115678207, 14988.610445095355, 7549.145227568773, -187500.02235174447, -187500.02235174447, -0.184, -0.772, -0.624, 192.0, 0.0, 0.0, 0.0, 0.0, 0.0, 0.0, 0.0, 0.0, 0.0, 1.6776151879628124E9, 0.0, 2023-02-28 12:13:07.962
112.0, 26662.36778049085, -4411.027361277028, 15123.927906027784, -3182.5978377578067, 14851.169568439671, 7536.471788462614, -187500.02235174447, -187500.02235174447, -0.184, -0.772, -0.624, 192.0, 0.0, 0.0, 0.0, 0.0, 0.0, 0.0, 0.0, 0.0, 0.0, 1.6776151879668984E9, 0.0, 2023-02-28 12:13:07.966
113.0, 26810.850418907456, -4411.384989188313, 15873.0466214474, -3192.3431983403207, 15236.580698082531, 7876.821801283575, -187500.02235174447, -187500.02235174447, -0.184, -0.772, -0.624, 192.0, 0.0, 0.0, 0.0, 0.0, 0.0, 0.0, 0.0, 0.0, 0.0, 1.6776151879698236E9, 0.0, 2023-02-28 12:13:07.969
114.0, 26850.21184089325, -4406.177032730226, 16223.253753573152, -3188.074015149357, 15424.760034651761, 7938.870243891507, -187500.02235174447, -187500.02235174447, -0.19, -0.772, -0.624, 192.0, 250.0, 16.0, 231.0, 224.0, 236.0, 128.0, 0.0, 0.0, 0.0, 1.6776151879738507E9, 0.0, 2023-02-28 12:13:07.973
115.0, 26767.48803466416, -4402.712512339654, 15506.92504726947, -3177.1887155996224, 15052.849358659907, 7598.5649345594575, -187500.02235174447, -187500.02235174447, -0.19, -0.772, -0.624, 192.0, 0.0, 0.0, 0.0, 0.0, 0.0, 0.0, 0.0, 0.0, 0.0, 1.6776151879779692E9, 0.0, 2023-02-28 12:13:07.977
116.0, 26714.58145553845, -4402.4219396617345, 15073.815294958986, -3178.887448178226, 14821.799376225397, 7492.349444907838, -187500.02235174447, -187500.02235174447, -0.19, -0.772, -0.624, 192.0, 0.0, 0.0, 0.0, 0.0, 0.0, 0.0, 0.0, 0.0, 0.0, 1.6776151879818804E9, 0.0, 2023-02-28 12:13:07.981
117.0, 26781.9719650712, -4408.926297298229, 15717.009093404902, -3190.0633204058795, 15148.559528417532, 7819.243707566704, -187500.02235174447, -187500.02235174447, -0.19, -0.772, -0.624, 192.0, 0.0, 0.0, 0.0, 0.0, 0.0, 0.0, 0.0, 0.0, 0.0, 1.6776151879868393E9, 0.0, 2023-02-28 12:13:07.986
118.0, 26847.775500747623, -4406.020570519039, 16248.511224807648, -3189.750395983505, 15433.00782835577, 7970.475610551312, -187500.02235174447, -187500.02235174447, -0.19, -0.772, -0.624, 192.0, 0.0, 0.0, 0.0, 0.0, 0.0, 0.0, 0.0, 0.0, 0.0, 1.6776151879908454E9, 0.0, 2023-02-28 12:13:07.990
119.0, 26715.654339272303, -4399.270343693536, 15652.278441462333, -3177.300474321899, 15125.17960371728, 7665.396650480825, -187500.02235174447, -187500.02235174447, -0.19, -0.772, -0.624, 192.0, 0.0, 0.0, 0.0, 0.0, 0.0, 0.0, 0.0, 0.0, 0.0, 1.677615187994844E9, 0.0, 2023-02-28 12:13:07.994
120.0, 26608.92475949821, -4393.749462813075, 15057.766742440075, -3174.662968476173, 14808.231867341026, 7478.044328456442, -187500.02235174447, -187500.02235174447, -0.19, -0.772, -0.624, 192.0, 0.0, 0.0, 0.0, 0.0, 0.0, 0.0, 0.0, 0.0, 0.0, 1.677615187997952E9, 0.0, 2023-02-28 12:13:07.997
121.0, 26755.39574091384, -4396.185802958704, 15559.809274650726, -3186.2411721040216, 15058.5043500071, 7747.494607865168, -187500.02235174447, -187500.02235174447, -0.19, -0.772, -0.624, 192.0, 0.0, 0.0, 0.0, 0.0, 0.0, 0.0, 0.0, 0.0, 0.0, 1.6776151880018835E9, 0.0, 2023-02-28 12:13:08.001
122.0, 26910.360385222484, -4405.238259463103, 16238.296477591573, -3190.845631461815, 15413.986493824303, 7981.383261845502, -187500.02235174447, -187500.02235174447, -0.19, -0.772, -0.624, 192.0, 0.0, 0.0, 0.0, 0.0, 0.0, 0.0, 0.0, 0.0, 0.0, 1.6776151880059063E9, 0.0, 2023-02-28 12:13:08.005
123.0, 26820.506372512147, -4399.359750671358, 15801.722204890515, -3178.932151667136, 15193.57594175052, 7724.896994220852, -187500.02235174447, -187500.02235174447, -0.19, -0.772, -0.624, 192.0, 0.0, 0.0, 0.0, 0.0, 0.0, 0.0, 0.0, 0.0, 0.0, 1.6776151880099075E9, 0.0, 2023-02-28 12:13:08.009
124.0, 26705.08196414494, -4397.236334948103, 15085.438202075746, -3176.62992198824, 14815.093852888805, 7457.167799135184, -187500.02235174447, -187500.02235174447, -0.184, -0.774, -0.63, 192.0, 250.0, 64.0, 231.0, 208.0, 236.0, 80.0, 0.0, 0.0, 0.0, 1.6776151880139625E9, 0.0, 2023-02-28 12:13:08.013
125.0, 26803.049660092554, -4412.659038622265, 15415.81933686964, -3189.7950994724156, 14975.937005989195, 7670.694013916733, -187500.02235174447, -187500.02235174447, -0.184, -0.774, -0.63, 192.0, 0.0, 0.0, 0.0, 0.0, 0.0, 0.0, 0.0, 0.0, 0.0, 1.6776151880189135E9, 0.0, 2023-02-28 12:13:08.018
126.0, 26782.888386593866, -4410.088588009905, 16186.172209521797, -3193.103157651801, 15385.264502199234, 7966.452296549356, -187500.02235174447, -187500.02235174447, -0.184, -0.774, -0.63, 192.0, 0.0, 0.0, 0.0, 0.0, 0.0, 0.0, 0.0, 0.0, 0.0, 1.6776151880229516E9, 0.0, 2023-02-28 12:13:08.022
127.0, 26723.18687715374, -4400.454986149667, 15940.124206557777, -3183.268390091466, 15264.11804725147, 7774.853143078464, -187500.02235174447, -187500.02235174447, -0.184, -0.774, -0.63, 192.0, 0.0, 0.0, 0.0, 0.0, 0.0, 0.0, 0.0, 0.0, 0.0, 1.6776151880259762E9, 0.0, 2023-02-28 12:13:08.025
128.0, 26637.445585423182, -4402.466643150645, 15148.47012143971, -3179.848573189804, 14843.100588691306, 7456.385488079249, -187500.02235174447, -187500.02235174447, -0.184, -0.774, -0.63, 192.0, 0.0, 0.0, 0.0, 0.0, 0.0, 0.0, 0.0, 0.0, 0.0, 1.6776151880298815E9, 0.0, 2023-02-28 12:13:08.029
129.0, 26712.770964237567, -4410.334457198913, 15282.513532938186, -3190.286837850432, 14903.271484764993, 7598.386120603815, -187500.02235174447, -187500.02235174447, -0.184, -0.774, -0.63, 192.0, 0.0, 0.0, 0.0, 0.0, 0.0, 0.0, 0.0, 0.0, 0.0, 1.677615188033884E9, 0.0, 2023-02-28 12:13:08.033
130.0, 26835.303227341563, -4415.520061912544, 16097.078156122943, -3198.556983298896, 15325.495937525742, 7934.176377555893, -187500.02235174447, -187500.02235174447, -0.184, -0.774, -0.63, 192.0, 0.0, 0.0, 0.0, 0.0, 0.0, 0.0, 0.0, 0.0, 0.0, 1.6776151880379255E9, 0.0, 2023-02-28 12:13:08.037
131.0, 26726.584342310947, -4412.212003733159, 16062.008269072567, -3189.996265172513, 15311.481393752265, 7832.967678662262, -187500.02235174447, -187500.02235174447, -0.184, -0.774, -0.63, 192.0, 0.0, 0.0, 0.0, 0.0, 0.0, 0.0, 0.0, 0.0, 0.0, 1.6776151880419526E9, 0.0, 2023-02-28 12:13:08.041
132.0, 26583.22025337461, -4405.886460052307, 15244.180291197335, -3179.8932766787148, 14890.933321825663, 7483.431098870171, -187500.02235174447, -187500.02235174447, -0.184, -0.774, -0.63, 192.0, 0.0, 0.0, 0.0, 0.0, 0.0, 0.0, 0.0, 0.0, 0.0, 1.6776151880469124E9, 0.0, 2023-02-28 12:13:08.046
133.0, 26640.12779475782, -4405.841756563396, 15172.252377540157, -3186.621151759762, 14847.436827115635, 7536.382381484793, -187500.02235174447, -187500.02235174447, -0.184, -0.774, -0.63, 192.0, 0.0, 0.0, 0.0, 0.0, 0.0, 0.0, 0.0, 0.0, 0.0, 1.6776151880509815E9, 0.0, 2023-02-28 12:13:08.050
134.0, 26749.91956352229, -4410.781492088019, 15976.155218619731, -3197.461747820586, 15259.02184951566, 7892.9374090358515, -187500.02235174447, -187500.02235174447, -0.184, -0.77, -0.624, 192.0, 250.0, 64.0, 231.0, 240.0, 236.0, 128.0, 0.0, 0.0, 0.0, 1.677615188053949E9, 0.0, 2023-02-28 12:13:08.053
135.0, 26797.104096067444, -4410.021532776539, 16157.740790574646, -3194.220744874566, 15359.291775142166, 7871.569141336578, -187500.02235174447, -187500.02235174447, -0.184, -0.77, -0.624, 192.0, 0.0, 0.0, 0.0, 0.0, 0.0, 0.0, 0.0, 0.0, 0.0, 1.6776151880580091E9, 0.0, 2023-02-28 12:13:08.058
136.0, 26636.395053433786, -4409.373332187335, 15374.558016605142, -3184.654198247695, 14957.407409835747, 7516.53403240848, -187500.02235174447, -187500.02235174447, -0.184, -0.77, -0.624, 192.0, 0.0, 0.0, 0.0, 0.0, 0.0, 0.0, 0.0, 0.0, 0.0, 1.677615188062039E9, 0.0, 2023-02-28 12:13:08.062
137.0, 26591.468047078615, -4409.440387420701, 15097.776365015074, -3188.588105271829, 14805.661416728666, 7484.839258770855, -187500.02235174447, -187500.02235174447, -0.184, -0.77, -0.624, 192.0, 0.0, 0.0, 0.0, 0.0, 0.0, 0.0, 0.0, 0.0, 0.0, 1.6776151880659847E9, 0.0, 2023-02-28 12:13:08.065
138.0, 26733.44632785873, -4406.981695530617, 15834.378103539719, -3198.2217071320665, 15184.255264312658, 7832.230071095237, -187500.02235174447, -187500.02235174447, -0.184, -0.77, -0.624, 192.0, 0.0, 0.0, 0.0, 0.0, 0.0, 0.0, 0.0, 0.0, 0.0, 1.67761518806994E9, 0.0, 2023-02-28 12:13:08.069
139.0, 26758.748502582133, -4399.20328846017, 16217.710520948234, -3193.6395995187286, 15386.873827800016, 7917.054941303128, -187500.02235174447, -187500.02235174447, -0.184, -0.77, -0.624, 192.0, 0.0, 0.0, 0.0, 0.0, 0.0, 0.0, 0.0, 0.0, 0.0, 1.6776151880749528E9, 0.0, 2023-02-28 12:13:08.074
140.0, 26626.023844006522, -4392.587172101399, 15515.93280028496, -3181.301436579399, 15028.776529881541, 7578.694233738689, -187500.02235174447, -187500.02235174447, -0.184, -0.77, -0.624, 192.0, 0.0, 0.0, 0.0, 0.0, 0.0, 0.0, 0.0, 0.0, 0.0, 1.677615188078022E9, 0.0, 2023-02-28 12:13:08.078
141.0, 26586.237738876076, -4392.050730234472, 15052.469379004167, -3181.6143610017734, 14784.986053107508, 7460.408802081204, -187500.02235174447, -187500.02235174447, -0.184, -0.77, -0.624, 192.0, 0.0, 0.0, 0.0, 0.0, 0.0, 0.0, 0.0, 0.0, 0.0, 1.6776151880819795E9, 0.0, 2023-02-28 12:13:08.081
142.0, 26694.397830295307, -4395.58230585841, 15677.893540608115, -3192.7231779960607, 15103.163135428804, 7776.462468679246, -187500.02235174447, -187500.02235174447, -0.184, -0.77, -0.624, 192.0, 0.0, 0.0, 0.0, 0.0, 0.0, 0.0, 0.0, 0.0, 0.0, 1.6776151880859723E9, 0.0, 2023-02-28 12:13:08.085
143.0, 26751.998275756632, -4390.374349400324, 16239.145843880875, -3192.0973291513124, 15397.200333738368, 7947.073334106605, -187500.02235174447, -187500.02235174447, -0.184, -0.77, -0.624, 192.0, 0.0, 0.0, 0.0, 0.0, 0.0, 0.0, 0.0, 0.0, 0.0, 1.677615188090011E9, 0.0, 2023-02-28 12:13:08.090
144.0, 26616.92668401321, -4383.355901641357, 15666.941185825013, -3179.4015383006977, 15102.98432147316, 7643.089609514429, -187500.02235174447, -187500.02235174447, -0.184, -0.77, -0.624, 192.0, 0.0, 0.0, 0.0, 0.0, 0.0, 0.0, 0.0, 0.0, 0.0, 1.6776151880940282E9, 0.0, 2023-02-28 12:13:08.094
