%OpenBCI Raw EEG Data
%Number of channels = 8
%Sample Rate = 250 Hz
%Board = OpenBCI_GUI$BoardCytonSerial
Sample Index, EXG Channel 0, EXG Channel 1, EXG Channel 2, EXG Channel 3, EXG Channel 4, EXG Channel 5, EXG Channel 6, EXG Channel 7, Accel Channel 0, Accel Channel 1, Accel Channel 2, Other, Other, Other, Other, Other, Other, Other, Analog Channel 0, Analog Channel 1, Analog Channel 2, Timestamp, Other, Timestamp (Formatted)
247.0, 25947.2237166433, -4415.788282846008, 16149.582403848459, -3357.5002381205845, 15183.67411895682, 7035.971526619378, -187500.02235174447, -187500.02235174447, 0.0, 0.0, 0.0, 192.0, 0.0, 0.0, 0.0, 0.0, 0.0, 0.0, 0.0, 0.0, 0.0, 1.677615660790576E9, 0.0, 2023-02-28 12:21:00.790
248.0, 25964.345152896065, -4414.313067711958, 16309.643245892912, -3357.5002381205845, 15264.721544351763, 7084.139535920565, -187500.02235174447, -187500.02235174447, 0.0, 0.0, 0.0, 192.0, 0.0, 0.0, 0.0, 0.0, 0.0, 0.0, 0.0, 0.0, 0.0, 1.677615660790605E9, 0.0, 2023-02-28 12:21:00.790
249.0, 25922.525039020187, -4414.961268301162, 16122.067406423976, -3354.9744909971346, 15167.737325160186, 6988.228200462842, -187500.02235174447, -187500.02235174447, -0.168, -0.752, -0.642, 192.0, 250.0, 192.0, 232.0, 128.0, 235.0, 240.0, 0.0, 0.0, 0.0, 1.6776156607906213E9, 0.0, 2023-02-28 12:21:00.790
250.0, 25902.743745177242, -4415.073027023438, 15942.448787981128, -3354.549807852484, 15074.08351589245, 6933.175853869421, -187500.02235174447, -187500.02235174447, -0.168, -0.752, -0.642, 192.0, 0.0, 0.0, 0.0, 0.0, 0.0, 0.0, 0.0, 0.0, 0.0, 1.6776156607906392E9, 0.0, 2023-02-28 12:21:00.790
0.0, 0.0, 0.0, 0.0, 0.0, 0.0, 0.0, 0.0, 0.0, -0.164, -0.718, -0.598, 192.0, 250.0, 224.0, 233.0, 144.0, 237.0, 80.0, 0.0, 0.0, 0.0, 1.6776156608588293E9, 0.0, 2023-02-28 12:21:00.858
1.0, 23521.23242869764, -4310.109235061316, 15960.978384134578, -3337.160150666255, 14910.424042990691, 6832.347134631531, -187500.02235174447, -187500.02235174447, -0.164, -0.718, -0.598, 192.0, 0.0, 0.0, 0.0, 0.0, 0.0, 0.0, 0.0, 0.0, 0.0, 1.6776156608759055E9, 0.0, 2023-02-28 12:21:00.875
2.0, 23690.12220980194, -4323.81085441242, 16093.121897354353, -3344.1338949363108, 14966.079886684405, 6917.976667639812, -187500.02235174447, -187500.02235174447, -0.164, -0.718, -0.598, 192.0, 0.0, 0.0, 0.0, 0.0, 0.0, 0.0, 0.0, 0.0, 0.0, 1.6776156608799443E9, 0.0, 2023-02-28 12:21:00.879
3.0, 23632.298246896058, -4316.010095597518, 16348.915260900887, -3343.7986187694814, 15100.279760394069, 7012.032808307745, -187500.02235174447, -187500.02235174447, -0.164, -0.718, -0.598, 192.0, 0.0, 0.0, 0.0, 0.0, 0.0, 0.0, 0.0, 0.0, 0.0, 1.6776156608829024E9, 0.0, 2023-02-28 12:21:00.882
4.0, 23572.909661878308, -4308.321095504892, 16239.12349213642, -3338.0095169555566, 15054.928070894252, 6932.170025368932, -187500.02235174447, -187500.02235174447, -0.164, -0.718, -0.598, 192.0, 0.0, 0.0, 0.0, 0.0, 0.0, 0.0, 0.0, 0.0, 0.0, 1.6776156608858752E9, 0.0, 2023-02-28 12:21:00.885
5.0, 23536.43161492725, -4314.289011274459, 15973.249491840541, -3337.5624820664507, 14918.448319250147, 6829.3743526189755, -187500.02235174447, -187500.02235174447, -0.164, -0.718, -0.598, 192.0, 0.0, 0.0, 0.0, 0.0, 0.0, 0.0, 0.0, 0.0, 0.0, 1.6776156608899348E9, 0.0, 2023-02-28 12:21:00.889
6.0, 23630.264238150627, -4325.800159668942, 16034.716789092636, -3341.1387611792998, 14943.884604440285, 6890.1934492818655, -187500.02235174447, -187500.02235174447, -0.164, -0.718, -0.598, 192.0, 0.0, 0.0, 0.0, 0.0, 0.0, 0.0, 0.0, 0.0, 0.0, 1.6776156608938704E9, 0.0, 2023-02-28 12:21:00.893
7.0, 23604.067993649005, -4317.820586898397, 16311.498440682702, -3340.42350535673, 15088.813315488496, 6999.001741290301, -187500.02235174447, -187500.02235174447, -0.164, -0.718, -0.598, 192.0, 0.0, 0.0, 0.0, 0.0, 0.0, 0.0, 0.0, 0.0, 0.0, 1.6776156608979516E9, 0.0, 2023-02-28 12:21:00.897
8.0, 23486.7436870031, -4303.738987891554, 16278.283748422116, -3335.573176809928, 15077.212760116192, 6950.5878628001055, -187500.02235174447, -187500.02235174447, -0.176, -0.724, -0.588, 192.0, 250.0, 128.0, 233.0, 96.0, 237.0, 160.0, 0.0, 0.0, 0.0, 1.6776156609028816E9, 0.0, 2023-02-28 12:21:00.902
9.0, 23413.20644774514, -4303.8730983582855, 15998.350500863851, -3333.7850372535036, 14941.38120906129, 6833.576480576573, -187500.02235174447, -187500.02235174447, -0.176, -0.724, -0.588, 192.0, 0.0, 0.0, 0.0, 0.0, 0.0, 0.0, 0.0, 0.0, 0.0, 1.677615660906882E9, 0.0, 2023-02-28 12:21:00.906
10.0, 23458.7369512006, -4304.253078014026, 15992.114364160821, -3335.617880298839, 14932.507566512533, 6870.658024627927, -187500.02235174447, -187500.02235174447, -0.176, -0.724, -0.588, 192.0, 0.0, 0.0, 0.0, 0.0, 0.0, 0.0, 0.0, 0.0, 0.0, 1.6776156609099946E9, 0.0, 2023-02-28 12:21:00.909
11.0, 23665.624697878924, -4317.373552009291, 16280.340108912005, -3341.004650712568, 15071.021326902071, 6987.267075451265, -187500.02235174447, -187500.02235174447, -0.176, -0.724, -0.588, 192.0, 0.0, 0.0, 0.0, 0.0, 0.0, 0.0, 0.0, 0.0, 0.0, 1.677615660914996E9, 0.0, 2023-02-28 12:21:00.914
12.0, 23531.335417191436, -4310.243345528048, 16324.574211189058, -3336.9589849661575, 15107.18644943076, 6978.818116047159, -187500.02235174447, -187500.02235174447, -0.176, -0.724, -0.588, 192.0, 0.0, 0.0, 0.0, 0.0, 0.0, 0.0, 0.0, 0.0, 0.0, 1.6776156609181213E9, 0.0, 2023-02-28 12:21:00.918
13.0, 23375.43199961567, -4296.362912221302, 16048.641925888292, -3330.745200007582, 14974.126514688316, 6867.864056571014, -187500.02235174447, -187500.02235174447, -0.176, -0.724, -0.588, 192.0, 0.0, 0.0, 0.0, 0.0, 0.0, 0.0, 0.0, 0.0, 0.0, 1.677615660921893E9, 0.0, 2023-02-28 12:21:00.921
14.0, 23480.820474722444, -4306.75647339302, 15970.790799950457, -3332.0192494415346, 14928.707769955132, 6864.086611758067, -187500.02235174447, -187500.02235174447, -0.176, -0.724, -0.588, 192.0, 0.0, 0.0, 0.0, 0.0, 0.0, 0.0, 0.0, 0.0, 0.0, 1.6776156609259193E9, 0.0, 2023-02-28 12:21:00.925
15.0, 23551.340228478937, -4305.549479192434, 16238.765864225134, -3332.7792087530147, 15063.533492509545, 6989.904581296991, -187500.02235174447, -187500.02235174447, -0.176, -0.724, -0.588, 192.0, 0.0, 0.0, 0.0, 0.0, 0.0, 0.0, 0.0, 0.0, 0.0, 1.677615660929973E9, 0.0, 2023-02-28 12:21:00.929
16.0, 23409.116078509818, -4299.447452956135, 16356.179577848861, -3332.332173863909, 15124.397292661346, 7004.343808215119, -187500.02235174447, -187500.02235174447, -0.176, -0.724, -0.588, 192.0, 0.0, 0.0, 0.0, 0.0, 0.0, 0.0, 0.0, 0.0, 0.0, 1.6776156609339142E9, 0.0, 2023-02-28 12:21:00.933
17.0, 23379.72353455109, -4295.200621509626, 16100.721490469157, -3328.733543006604, 14995.07009924294, 6880.224571254799, -187500.02235174447, -187500.02235174447, -0.176, -0.724, -0.588, 192.0, 0.0, 0.0, 0.0, 0.0, 0.0, 0.0, 0.0, 0.0, 0.0, 1.6776156609379408E9, 0.0, 2023-02-28 12:21:00.937
18.0, 23376.214310671607, -4295.379435465269, 15951.121264829788, -3328.487673817596, 14922.42692976319, 6841.220777180288, -187500.02235174447, -187500.02235174447, -0.188, -0.758, -0.61, 192.0, 250.0, 32.0, 232.0, 80.0, 236.0, 240.0, 0.0, 0.0, 0.0, 1.677615660942956E9, 0.0, 2023-02-28 12:21:00.942
19.0, 23422.147145527262, -4302.599048924333, 16185.009918810121, -3334.7014587761714, 15037.001971841095, 6952.823037245636, -187500.02235174447, -187500.02235174447, -0.188, -0.758, -0.61, 192.0, 0.0, 0.0, 0.0, 0.0, 0.0, 0.0, 0.0, 0.0, 0.0, 1.6776156609460104E9, 0.0, 2023-02-28 12:21:00.946
20.0, 23372.749790281036, -4306.935287348662, 16359.37587730597, -3334.4779413316182, 15124.978438017182, 7012.703360641403, -187500.02235174447, -187500.02235174447, -0.188, -0.758, -0.61, 192.0, 0.0, 0.0, 0.0, 0.0, 0.0, 0.0, 0.0, 0.0, 0.0, 1.6776156609490223E9, 0.0, 2023-02-28 12:21:00.949
21.0, 23311.640120940225, -4299.715673889598, 16140.86522351089, -3331.415752341241, 15014.203192496681, 6896.831917385092, -187500.02235174447, -187500.02235174447, -0.188, -0.758, -0.61, 192.0, 0.0, 0.0, 0.0, 0.0, 0.0, 0.0, 0.0, 0.0, 0.0, 1.6776156609539716E9, 0.0, 2023-02-28 12:21:00.953
22.0, 23280.88412056972, -4303.537822191456, 15941.10768331381, -3332.063952930445, 14910.848726135342, 6832.503596842718, -187500.02235174447, -187500.02235174447, -0.188, -0.758, -0.61, 192.0, 0.0, 0.0, 0.0, 0.0, 0.0, 0.0, 0.0, 0.0, 0.0, 1.677615660958016E9, 0.0, 2023-02-28 12:21:00.958
23.0, 23306.074536570854, -4302.129662290771, 16125.28605762554, -3335.6849355322047, 14993.259607942058, 6941.758923740259, -187500.02235174447, -187500.02235174447, -0.188, -0.758, -0.61, 192.0, 0.0, 0.0, 0.0, 0.0, 0.0, 0.0, 0.0, 0.0, 0.0, 1.6776156609620152E9, 0.0, 2023-02-28 12:21:00.962
24.0, 23239.041654949386, -4297.256981999514, 16350.166958590384, -3335.841397743392, 15118.250562936135, 7018.760683388792, -187500.02235174447, -187500.02235174447, -0.188, -0.758, -0.61, 192.0, 0.0, 0.0, 0.0, 0.0, 0.0, 0.0, 0.0, 0.0, 0.0, 1.677615660965979E9, 0.0, 2023-02-28 12:21:00.965
25.0, 23328.739205448535, -4316.099502575338, 16190.463744457216, -3336.936633221702, 15035.683218918231, 6920.725932207815, -187500.02235174447, -187500.02235174447, -0.188, -0.758, -0.61, 192.0, 0.0, 0.0, 0.0, 0.0, 0.0, 0.0, 0.0, 0.0, 0.0, 1.6776156609699264E9, 0.0, 2023-02-28 12:21:00.969
26.0, 23216.73461398299, -4316.680647931176, 15948.662572939704, -3335.170845409733, 14915.922572126696, 6831.743637531238, -187500.02235174447, -187500.02235174447, -0.188, -0.758, -0.61, 192.0, 0.0, 0.0, 0.0, 0.0, 0.0, 0.0, 0.0, 0.0, 0.0, 1.6776156609740324E9, 0.0, 2023-02-28 12:21:00.974
27.0, 23097.1527811471, -4301.369702979291, 16071.753629655079, -3335.819045998937, 14979.826209524419, 6910.17590882491, -187500.02235174447, -187500.02235174447, -0.188, -0.758, -0.61, 192.0, 0.0, 0.0, 0.0, 0.0, 0.0, 0.0, 0.0, 0.0, 0.0, 1.677615660976987E9, 0.0, 2023-02-28 12:21:00.976
28.0, 23189.19726481405, -4303.560173935911, 16338.588754962535, -3338.5012553335737, 15114.696635567741, 7006.444872193918, -187500.02235174447, -187500.02235174447, -0.214, -0.796, -0.648, 192.0, 249.0, 80.0, 231.0, 32.0, 235.0, 192.0, 0.0, 0.0, 0.0, 1.677615660982022E9, 0.0, 2023-02-28 12:21:00.982
29.0, 23199.859046919235, -4310.220993783592, 16246.432512573305, -3336.579005310417, 15068.227358845159, 6940.171949883932, -187500.02235174447, -187500.02235174447, -0.214, -0.796, -0.648, 192.0, 0.0, 0.0, 0.0, 0.0, 0.0, 0.0, 0.0, 0.0, 0.0, 1.67761566098601E9, 0.0, 2023-02-28 12:21:00.986
30.0, 23185.48687523447, -4318.669953187698, 15977.898654687246, -3335.3496593653754, 14930.562964744922, 6836.437503866852, -187500.02235174447, -187500.02235174447, -0.214, -0.796, -0.648, 192.0, 0.0, 0.0, 0.0, 0.0, 0.0, 0.0, 0.0, 0.0, 0.0, 1.6776156609899633E9, 0.0, 2023-02-28 12:21:00.989
31.0, 23169.30421224883, -4320.659258444221, 16031.74400708008, -3338.0542204444673, 14958.524997058512, 6888.829992870092, -187500.02235174447, -187500.02235174447, -0.214, -0.796, -0.648, 192.0, 0.0, 0.0, 0.0, 0.0, 0.0, 0.0, 0.0, 0.0, 0.0, 1.677615660994038E9, 0.0, 2023-02-28 12:21:00.994
32.0, 23161.190529011554, -4313.461996729612, 16315.499402940202, -3339.395325111786, 15105.375958129878, 6997.124194756055, -187500.02235174447, -187500.02235174447, -0.214, -0.796, -0.648, 192.0, 0.0, 0.0, 0.0, 0.0, 0.0, 0.0, 0.0, 0.0, 0.0, 1.6776156609980087E9, 0.0, 2023-02-28 12:21:00.998
33.0, 23131.10508097471, -4319.005229354529, 16296.053385264086, -3337.89775823328, 15092.255484134614, 6958.388621615008, -187500.02235174447, -187500.02235174447, -0.214, -0.796, -0.648, 192.0, 0.0, 0.0, 0.0, 0.0, 0.0, 0.0, 0.0, 0.0, 0.0, 1.677615661001994E9, 0.0, 2023-02-28 12:21:01.001
34.0, 23066.106208098678, -4323.922613134696, 16015.270771416519, -3334.9920314540905, 14951.81947372192, 6852.351945919031, -187500.02235174447, -187500.02235174447, -0.214, -0.796, -0.648, 192.0, 0.0, 0.0, 0.0, 0.0, 0.0, 0.0, 0.0, 0.0, 0.0, 1.6776156610050611E9, 0.0, 2023-02-28 12:21:01.005
35.0, 23168.767770381903, -4330.76224693802, 15996.607064796337, -3336.9142814772467, 14942.00705790604, 6876.625940397495, -187500.02235174447, -187500.02235174447, -0.214, -0.796, -0.648, 192.0, 0.0, 0.0, 0.0, 0.0, 0.0, 0.0, 0.0, 0.0, 0.0, 1.6776156610099592E9, 0.0, 2023-02-28 12:21:01.009
36.0, 23088.32384208725, -4320.346334021847, 16280.071887978542, -3338.9259384782245, 15089.640330033342, 6993.637322621027, -187500.02235174447, -187500.02235174447, -0.214, -0.796, -0.648, 192.0, 0.0, 0.0, 0.0, 0.0, 0.0, 0.0, 0.0, 0.0, 0.0, 1.677615661014064E9, 0.0, 2023-02-28 12:21:01.014
37.0, 23053.18689980351, -4321.307459033425, 16335.23599329424, -3337.7189442776375, 15118.317618169502, 6988.071738251655, -187500.02235174447, -187500.02235174447, -0.214, -0.796, -0.648, 192.0, 0.0, 0.0, 0.0, 0.0, 0.0, 0.0, 0.0, 0.0, 0.0, 1.6776156610180292E9, 0.0, 2023-02-28 12:21:01.018
38.0, 23012.014986516835, -4315.272488030492, 16059.862501604857, -3332.287470374998, 14982.843695025886, 6867.059393770623, -187500.02235174447, -187500.02235174447, -0.216, -0.776, -0.636, 192.0, 249.0, 64.0, 231.0, 192.0, 236.0, 32.0, 0.0, 0.0, 0.0, 1.6776156610220563E9, 0.0, 2023-02-28 12:21:01.022
39.0, 23000.50383812235, -4306.957639093118, 15966.074581870387, -3330.23110988511, 14937.447302037157, 6859.482152400274, -187500.02235174447, -187500.02235174447, -0.216, -0.776, -0.636, 192.0, 0.0, 0.0, 0.0, 0.0, 0.0, 0.0, 0.0, 0.0, 0.0, 1.6776156610261338E9, 0.0, 2023-02-28 12:21:01.026
40.0, 23065.346248787195, -4311.47269147309, 16231.993285655177, -3333.293298875487, 15072.161265869292, 6983.646092849504, -187500.02235174447, -187500.02235174447, -0.216, -0.776, -0.636, 192.0, 0.0, 0.0, 0.0, 0.0, 0.0, 0.0, 0.0, 0.0, 0.0, 1.67761566103005E9, 0.0, 2023-02-28 12:21:01.030
41.0, 23083.339403073718, -4316.702999675632, 16358.347697061026, -3333.1368366642996, 15137.629525378887, 7005.126119271054, -187500.02235174447, -187500.02235174447, -0.216, -0.776, -0.636, 192.0, 0.0, 0.0, 0.0, 0.0, 0.0, 0.0, 0.0, 0.0, 0.0, 1.677615661033052E9, 0.0, 2023-02-28 12:21:01.033
42.0, 23101.936054460533, -4319.988706110562, 16110.735071985135, -3331.996897697079, 15005.508363903567, 6885.700748646349, -187500.02235174447, -187500.02235174447, -0.216, -0.776, -0.636, 192.0, 0.0, 0.0, 0.0, 0.0, 0.0, 0.0, 0.0, 0.0, 0.0, 1.677615661038025E9, 0.0, 2023-02-28 12:21:01.038
43.0, 23007.142306225578, -4320.279278788481, 15957.849139910835, -3331.2145866411433, 14931.166461845216, 6852.731925574771, -187500.02235174447, -187500.02235174447, -0.216, -0.776, -0.636, 192.0, 0.0, 0.0, 0.0, 0.0, 0.0, 0.0, 0.0, 0.0, 0.0, 1.6776156610420225E9, 0.0, 2023-02-28 12:21:01.042
44.0, 22904.368985220073, -4309.818662383397, 16185.903988588332, -3332.5333395640064, 15052.424675515256, 6968.893941509002, -187500.02235174447, -187500.02235174447, -0.216, -0.776, -0.636, 192.0, 0.0, 0.0, 0.0, 0.0, 0.0, 0.0, 0.0, 0.0, 0.0, 1.6776156610461335E9, 0.0, 2023-02-28 12:21:01.046
45.0, 22899.87628458456, -4303.537822191456, 16373.189255379351, -3332.332173863909, 15149.744170873664, 7022.292259012731, -187500.02235174447, -187500.02235174447, -0.216, -0.776, -0.636, 192.0, 0.0, 0.0, 0.0, 0.0, 0.0, 0.0, 0.0, 0.0, 0.0, 1.677615661050089E9, 0.0, 2023-02-28 12:21:01.050
46.0, 22962.30470684823, -4314.356066507825, 16167.776723835079, -3330.7228482631267, 15043.148701566304, 6905.325580278109, -187500.02235174447, -187500.02235174447, -0.216, -0.776, -0.636, 192.0, 0.0, 0.0, 0.0, 0.0, 0.0, 0.0, 0.0, 0.0, 0.0, 1.677615661053179E9, 0.0, 2023-02-28 12:21:01.053
47.0, 22907.43117421045, -4320.122816577294, 15963.727648702581, -3331.840435485892, 14929.177156588694, 6842.159550447411, -187500.02235174447, -187500.02235174447, -0.216, -0.776, -0.636, 192.0, 0.0, 0.0, 0.0, 0.0, 0.0, 0.0, 0.0, 0.0, 0.0, 1.6776156610570507E9, 0.0, 2023-02-28 12:21:01.057
48.0, 23024.710777367447, -4327.454188758635, 16145.760255546602, -3338.3671448668415, 15012.01272154006, 6942.004792929268, -187500.02235174447, -187500.02235174447, -0.20600000000000002, -0.764, -0.624, 192.0, 249.0, 144.0, 232.0, 32.0, 236.0, 128.0, 0.0, 0.0, 0.0, 1.6776156610610723E9, 0.0, 2023-02-28 12:21:01.061
49.0, 23043.396835732085, -4324.8837381462745, 16381.101772916529, -3337.9201099777356, 15139.864699824418, 7022.582831690649, -187500.02235174447, -187500.02235174447, -0.20600000000000002, -0.764, -0.624, 192.0, 0.0, 0.0, 0.0, 0.0, 0.0, 0.0, 0.0, 0.0, 0.0, 1.6776156610661175E9, 0.0, 2023-02-28 12:21:01.066
50.0, 22800.18750431389, -4307.4493774711345, 16222.650256472858, -3328.7558947510597, 15068.383821056346, 6943.032973174211, -187500.02235174447, -187500.02235174447, -0.20600000000000002, -0.764, -0.624, 192.0, 0.0, 0.0, 0.0, 0.0, 0.0, 0.0, 0.0, 0.0, 0.0, 1.6776156610700784E9, 0.0, 2023-02-28 12:21:01.070
51.0, 22688.11585761498, -4294.977104065073, 15973.96474766311, -3326.118388905333, 14940.978877661095, 6853.491884886252, -187500.02235174447, -187500.02235174447, -0.20600000000000002, -0.764, -0.624, 192.0, 0.0, 0.0, 0.0, 0.0, 0.0, 0.0, 0.0, 0.0, 0.0, 1.677615661074058E9, 0.0, 2023-02-28 12:21:01.074
52.0, 22772.60545165604, -4306.577659437377, 16091.400813031294, -3332.220415141632, 14996.835887054907, 6923.475196775818, -187500.02235174447, -187500.02235174447, -0.20600000000000002, -0.764, -0.624, 192.0, 0.0, 0.0, 0.0, 0.0, 0.0, 0.0, 0.0, 0.0, 0.0, 1.677615661078073E9, 0.0, 2023-02-28 12:21:01.078
53.0, 22790.866826876027, -4309.416330983202, 16361.90162442942, -3334.030906442512, 15137.227193978692, 7025.577965447661, -187500.02235174447, -187500.02235174447, -0.20600000000000002, -0.764, -0.624, 192.0, 0.0, 0.0, 0.0, 0.0, 0.0, 0.0, 0.0, 0.0, 0.0, 1.6776156610810776E9, 0.0, 2023-02-28 12:21:01.081
54.0, 22746.3198001766, -4306.130624548272, 16276.115629209951, -3330.1640546517438, 15093.909513224306, 6961.987252472312, -187500.02235174447, -187500.02235174447, -0.20600000000000002, -0.764, -0.624, 192.0, 0.0, 0.0, 0.0, 0.0, 0.0, 0.0, 0.0, 0.0, 0.0, 1.677615661085106E9, 0.0, 2023-02-28 12:21:01.085
55.0, 22771.018477799713, -4312.098540317838, 16003.804326510946, -3330.1640546517438, 14951.260680110538, 6848.596852850539, -187500.02235174447, -187500.02235174447, -0.20600000000000002, -0.764, -0.624, 192.0, 0.0, 0.0, 0.0, 0.0, 0.0, 0.0, 0.0, 0.0, 0.0, 1.6776156610890744E9, 0.0, 2023-02-28 12:21:01.089
56.0, 22863.24177542231, -4326.113084091316, 16048.038428787999, -3334.589700053895, 14968.426819852213, 6895.088481317578, -187500.02235174447, -187500.02235174447, -0.20600000000000002, -0.764, -0.624, 192.0, 0.0, 0.0, 0.0, 0.0, 0.0, 0.0, 0.0, 0.0, 0.0, 1.6776156610931296E9, 0.0, 2023-02-28 12:21:01.093
57.0, 22813.151516097965, -4325.196662568648, 16335.459510738792, -3336.2437291435876, 15119.412853647811, 7014.446796708918, -187500.02235174447, -187500.02235174447, -0.20600000000000002, -0.764, -0.624, 192.0, 0.0, 0.0, 0.0, 0.0, 0.0, 0.0, 0.0, 0.0, 0.0, 1.6776156610981584E9, 0.0, 2023-02-28 12:21:01.098
58.0, 22726.806727267114, -4314.490176974557, 16325.04359782262, -3332.220415141632, 15117.75882455812, 6980.516848625762, -187500.02235174447, -187500.02235174447, -0.192, -0.766, -0.628, 192.0, 250.0, 0.0, 232.0, 16.0, 236.0, 96.0, 0.0, 0.0, 0.0, 1.6776156611021953E9, 0.0, 2023-02-28 12:21:01.102
59.0, 22672.514339985173, -4308.879889116274, 16040.774111840024, -3328.0853424174006, 14972.561892576445, 6868.042870526657, -187500.02235174447, -187500.02235174447, -0.192, -0.766, -0.628, 192.0, 0.0, 0.0, 0.0, 0.0, 0.0, 0.0, 0.0, 0.0, 0.0, 1.677615661106083E9, 0.0, 2023-02-28 12:21:01.106
60.0, 22650.00613331868, -4305.393016981247, 16011.001588225556, -3329.8287784849144, 14960.00021219256, 6885.209010268332, -187500.02235174447, -187500.02235174447, -0.192, -0.766, -0.628, 192.0, 0.0, 0.0, 0.0, 0.0, 0.0, 0.0, 0.0, 0.0, 0.0, 1.6776156611091049E9, 0.0, 2023-02-28 12:21:01.109
61.0, 22726.762023778203, -4307.225860026581, 16296.947455042298, -3333.7179820201377, 15105.174792429782, 7009.3505989731075, -187500.02235174447, -187500.02235174447, -0.192, -0.766, -0.628, 192.0, 0.0, 0.0, 0.0, 0.0, 0.0, 0.0, 0.0, 0.0, 0.0, 1.6776156611131532E9, 0.0, 2023-02-28 12:21:01.113
62.0, 22757.294506704155, -4313.461996729612, 16363.466246541293, -3332.8239122419254, 15141.004638791639, 7007.875383839058, -187500.02235174447, -187500.02235174447, -0.192, -0.766, -0.628, 192.0, 0.0, 0.0, 0.0, 0.0, 0.0, 0.0, 0.0, 0.0, 0.0, 1.6776156611171665E9, 0.0, 2023-02-28 12:21:01.117
63.0, 22651.503700197187, -4306.912935604208, 16087.690423451713, -3327.5041970615625, 15005.530715648023, 6885.253713757243, -187500.02235174447, -187500.02235174447, -0.192, -0.766, -0.628, 192.0, 0.0, 0.0, 0.0, 0.0, 0.0, 0.0, 0.0, 0.0, 0.0, 1.6776156611211565E9, 0.0, 2023-02-28 12:21:01.121
64.0, 22595.75844952565, -4307.2705635154925, 15988.761602492525, -3328.3088598619534, 14953.607613278344, 6865.517123403207, -187500.02235174447, -187500.02235174447, -0.192, -0.766, -0.628, 192.0, 0.0, 0.0, 0.0, 0.0, 0.0, 0.0, 0.0, 0.0, 0.0, 1.6776156611261926E9, 0.0, 2023-02-28 12:21:01.126
65.0, 22652.82245312005, -4306.063569314905, 16252.199262642773, -3330.23110988511, 15087.628673032365, 6991.804479575691, -187500.02235174447, -187500.02235174447, -0.192, -0.766, -0.628, 192.0, 0.0, 0.0, 0.0, 0.0, 0.0, 0.0, 0.0, 0.0, 0.0, 1.6776156611301491E9, 0.0, 2023-02-28 12:21:01.130
66.0, 22660.10912181248, -4307.427025726679, 16388.254331142227, -3329.5382058069954, 15160.696525656764, 7026.1367590590435, -187500.02235174447, -187500.02235174447, -0.192, -0.766, -0.628, 192.0, 0.0, 0.0, 0.0, 0.0, 0.0, 0.0, 0.0, 0.0, 0.0, 1.6776156611342769E9, 0.0, 2023-02-28 12:21:01.134
67.0, 22600.049984461068, -4306.9799908375735, 16142.116921200386, -3326.2972028609756, 15035.996143340606, 6904.744434922271, -187500.02235174447, -187500.02235174447, -0.192, -0.766, -0.628, 192.0, 0.0, 0.0, 0.0, 0.0, 0.0, 0.0, 0.0, 0.0, 0.0, 1.677615661137182E9, 0.0, 2023-02-28 12:21:01.137
68.0, 22614.310397423556, -4307.874060615785, 15980.714974488614, -3326.9230517057244, 14950.992459177072, 6860.331518689575, -187500.02235174447, -187500.02235174447, -0.196, -0.764, -0.64, 192.0, 249.0, 224.0, 232.0, 32.0, 236.0, 0.0, 0.0, 0.0, 0.0, 1.6776156611411662E9, 0.0, 2023-02-28 12:21:01.141
69.0, 22673.564871974573, -4310.578621694877, 16207.07109058751, -3330.23110988511, 15061.07480061946, 6976.180610201432, -187500.02235174447, -187500.02235174447, -0.196, -0.764, -0.64, 192.0, 0.0, 0.0, 0.0, 0.0, 0.0, 0.0, 0.0, 0.0, 0.0, 1.677615661145183E9, 0.0, 2023-02-28 12:21:01.145
70.0, 22652.688342653317, -4309.3269240053805, 16403.788793538664, -3329.739371507093, 15160.294194256569, 7037.20087256442, -187500.02235174447, -187500.02235174447, -0.196, -0.764, -0.64, 192.0, 0.0, 0.0, 0.0, 0.0, 0.0, 0.0, 0.0, 0.0, 0.0, 1.6776156611492388E9, 0.0, 2023-02-28 12:21:01.149
71.0, 22598.015975715636, -4304.94598209214, 16198.39861373885, -3325.358429593853, 15060.359544796891, 6927.409103799952, -187500.02235174447, -187500.02235174447, -0.196, -0.764, -0.64, 192.0, 0.0, 0.0, 0.0, 0.0, 0.0, 0.0, 0.0, 0.0, 0.0, 1.6776156611541302E9, 0.0, 2023-02-28 12:21:01.154
72.0, 22588.56118781104, -4303.0460838134395, 15981.921968689201, -3323.480883059607, 14954.814607478931, 6856.710536087816, -187500.02235174447, -187500.02235174447, -0.196, -0.764, -0.64, 192.0, 0.0, 0.0, 0.0, 0.0, 0.0, 0.0, 0.0, 0.0, 0.0, 1.6776156611582162E9, 0.0, 2023-02-28 12:21:01.158
73.0, 22632.750586599184, -4304.1636710362045, 16153.270441683584, -3326.811292983448, 15042.701666677198, 6953.359479112563, -187500.02235174447, -187500.02235174447, -0.196, -0.764, -0.64, 192.0, 0.0, 0.0, 0.0, 0.0, 0.0, 0.0, 0.0, 0.0, 0.0, 1.6776156611622376E9, 0.0, 2023-02-28 12:21:01.162
74.0, 22648.597973417996, -4304.923630347685, 16396.18920042386, -3327.0124586835454, 15165.613909436932, 7039.704267943414, -187500.02235174447, -187500.02235174447, -0.196, -0.764, -0.64, 192.0, 0.0, 0.0, 0.0, 0.0, 0.0, 0.0, 0.0, 0.0, 0.0, 1.6776156611652853E9, 0.0, 2023-02-28 12:21:01.165
75.0, 22608.074260720525, -4311.673857173188, 16252.869814976433, -3324.106731904356, 15089.528571311066, 6946.3633830980525, -187500.02235174447, -187500.02235174447, -0.196, -0.764, -0.64, 192.0, 0.0, 0.0, 0.0, 0.0, 0.0, 0.0, 0.0, 0.0, 0.0, 1.677615661169212E9, 0.0, 2023-02-28 12:21:01.169
76.0, 22586.348365109967, -4314.624287441288, 15999.177515408697, -3322.4303510702075, 14953.182930133693, 6856.308204687621, -187500.02235174447, -187500.02235174447, -0.196, -0.764, -0.64, 192.0, 0.0, 0.0, 0.0, 0.0, 0.0, 0.0, 0.0, 0.0, 0.0, 1.6776156611732433E9, 0.0, 2023-02-28 12:21:01.173
77.0, 22607.448411875775, -4316.792406653453, 16103.157830614786, -3325.6266505273165, 15008.436442427212, 6928.593746256083, -187500.02235174447, -187500.02235174447, -0.196, -0.764, -0.64, 192.0, 0.0, 0.0, 0.0, 0.0, 0.0, 0.0, 0.0, 0.0, 0.0, 1.6776156611771712E9, 0.0, 2023-02-28 12:21:01.177
78.0, 22670.43562775083, -4320.122816577294, 16377.749011248234, -3328.8229499844256, 15149.744170873664, 7026.270869525775, -187500.02235174447, -187500.02235174447, -0.21, -0.758, -0.63, 192.0, 249.0, 112.0, 232.0, 80.0, 236.0, 80.0, 0.0, 0.0, 0.0, 1.6776156611822433E9, 0.0, 2023-02-28 12:21:01.182
79.0, 22679.041049366126, -4320.61455495531, 16301.373100444449, -3324.866691215836, 15111.522687855087, 6964.602406573583, -187500.02235174447, -187500.02235174447, -0.21, -0.758, -0.63, 192.0, 0.0, 0.0, 0.0, 0.0, 0.0, 0.0, 0.0, 0.0, 0.0, 1.6776156611862338E9, 0.0, 2023-02-28 12:21:01.186
80.0, 22648.15093852889, -4323.766150923509, 16022.020998242022, -3322.251537114565, 14963.956470961151, 6860.219759967299, -187500.02235174447, -187500.02235174447, -0.21, -0.758, -0.63, 192.0, 0.0, 0.0, 0.0, 0.0, 0.0, 0.0, 0.0, 0.0, 0.0, 1.677615661190235E9, 0.0, 2023-02-28 12:21:01.190
81.0, 22684.360764546487, -4326.0013253690395, 16052.486425934605, -3323.9726214376237, 14974.171218177227, 6902.84453664357, -187500.02235174447, -187500.02235174447, -0.21, -0.758, -0.63, 192.0, 0.0, 0.0, 0.0, 0.0, 0.0, 0.0, 0.0, 0.0, 0.0, 1.677615661193265E9, 0.0, 2023-02-28 12:21:01.193
82.0, 22748.890250788958, -4330.561081237922, 16337.985257862241, -3327.5265488060177, 15118.60819084742, 7017.129006043555, -187500.02235174447, -187500.02235174447, -0.21, -0.758, -0.63, 192.0, 0.0, 0.0, 0.0, 0.0, 0.0, 0.0, 0.0, 0.0, 0.0, 1.6776156611972644E9, 0.0, 2023-02-28 12:21:01.197
83.0, 22766.23520448628, -4334.293822561958, 16336.152414816906, -3325.8501679718697, 15121.826842048984, 6982.57320911565, -187500.02235174447, -187500.02235174447, -0.21, -0.758, -0.63, 192.0, 0.0, 0.0, 0.0, 0.0, 0.0, 0.0, 0.0, 0.0, 0.0, 1.677615661201239E9, 0.0, 2023-02-28 12:21:01.201
84.0, 22746.297448432142, -4337.400715041246, 16048.396056699285, -3323.0561999149563, 14974.126514688316, 6863.349004191042, -187500.02235174447, -187500.02235174447, -0.21, -0.758, -0.63, 192.0, 0.0, 0.0, 0.0, 0.0, 0.0, 0.0, 0.0, 0.0, 0.0, 1.6776156612054431E9, 0.0, 2023-02-28 12:21:01.205
85.0, 22779.266271503722, -4338.786523197475, 16004.765451522524, -3324.509063304551, 14950.76894173252, 6875.441297941363, -187500.02235174447, -187500.02235174447, -0.21, -0.758, -0.63, 192.0, 0.0, 0.0, 0.0, 0.0, 0.0, 0.0, 0.0, 0.0, 0.0, 1.6776156612112749E9, 0.0, 2023-02-28 12:21:01.211
86.0, 22864.67228706745, -4339.814703442419, 16286.822114804045, -3327.5041970615625, 15092.970739957183, 6996.118366255566, -187500.02235174447, -187500.02235174447, -0.21, -0.758, -0.63, 192.0, 0.0, 0.0, 0.0, 0.0, 0.0, 0.0, 0.0, 0.0, 0.0, 1.6776156612142792E9, 0.0, 2023-02-28 12:21:01.214
87.0, 22901.038575296232, -4343.703906977643, 16360.784037206655, -3326.811292983448, 15129.247621208147, 6994.95607554389, -187500.02235174447, -187500.02235174447, -0.21, -0.758, -0.63, 192.0, 0.0, 0.0, 0.0, 0.0, 0.0, 0.0, 0.0, 0.0, 0.0, 1.677615661218264E9, 0.0, 2023-02-28 12:21:01.218
88.0, 22891.404973435998, -4347.794276212964, 16083.734164683125, -3323.3467725928754, 14987.202285194671, 6868.601664138039, -187500.02235174447, -187500.02235174447, -0.212, -0.754, -0.614, 192.0, 249.0, 96.0, 232.0, 112.0, 236.0, 208.0, 0.0, 0.0, 0.0, 1.6776156612213335E9, 0.0, 2023-02-28 12:21:01.221
89.0, 22900.748002618315, -4350.923520436707, 15970.656689483725, -3323.7938074819813, 14925.958505387129, 6847.367506905497, -187500.02235174447, -187500.02235174447, -0.212, -0.754, -0.614, 192.0, 0.0, 0.0, 0.0, 0.0, 0.0, 0.0, 0.0, 0.0, 0.0, 1.677615661225341E9, 0.0, 2023-02-28 12:21:01.225
90.0, 22963.131721393078, -4354.075116404905, 16229.333428064994, -3327.6383075282943, 15055.352754038902, 6973.833677033625, -187500.02235174447, -187500.02235174447, -0.212, -0.754, -0.614, 192.0, 0.0, 0.0, 0.0, 0.0, 0.0, 0.0, 0.0, 0.0, 0.0, 1.677615661229435E9, 0.0, 2023-02-28 12:21:01.229
91.0, 22996.324061909207, -4355.86325596133, 16374.418601324393, -3326.766589494537, 15127.437129907266, 7008.7023983839035, -187500.02235174447, -187500.02235174447, -0.212, -0.754, -0.614, 192.0, 0.0, 0.0, 0.0, 0.0, 0.0, 0.0, 0.0, 0.0, 0.0, 1.6776156612333684E9, 0.0, 2023-02-28 12:21:01.233
92.0, 22978.465018089417, -4357.651395517754, 16128.504708827104, -3323.614993526339, 14996.187686465704, 6889.187620781377, -187500.02235174447, -187500.02235174447, -0.212, -0.754, -0.614, 192.0, 0.0, 0.0, 0.0, 0.0, 0.0, 0.0, 0.0, 0.0, 0.0, 1.6776156612373636E9, 0.0, 2023-02-28 12:21:01.237
93.0, 22977.101561677642, -4358.232540873592, 15954.20580556462, -3323.4361795706964, 14903.09267080935, 6847.523969116684, -187500.02235174447, -187500.02235174447, -0.212, -0.754, -0.614, 192.0, 0.0, 0.0, 0.0, 0.0, 0.0, 0.0, 0.0, 0.0, 0.0, 1.677615661242328E9, 0.0, 2023-02-28 12:21:01.242
94.0, 23026.61067564615, -4360.713584508131, 16172.403534937328, -3327.2806796170094, 15017.086567531416, 6961.741383283304, -187500.02235174447, -187500.02235174447, -0.212, -0.754, -0.614, 192.0, 0.0, 0.0, 0.0, 0.0, 0.0, 0.0, 0.0, 0.0, 0.0, 1.6776156612453575E9, 0.0, 2023-02-28 12:21:01.245
95.0, 23068.654306966582, -4360.870046719318, 16376.296147858639, -3327.5265488060177, 15122.542097871556, 7019.408883977996, -187500.02235174447, -187500.02235174447, -0.212, -0.754, -0.614, 192.0, 0.0, 0.0, 0.0, 0.0, 0.0, 0.0, 0.0, 0.0, 0.0, 1.6776156612493527E9, 0.0, 2023-02-28 12:21:01.249
96.0, 23045.676713666526, -4359.417183329723, 16173.610529137914, -3321.89390920328, 15024.909678090773, 6910.086501847089, -187500.02235174447, -187500.02235174447, -0.212, -0.754, -0.614, 192.0, 0.0, 0.0, 0.0, 0.0, 0.0, 0.0, 0.0, 0.0, 0.0, 1.6776156612534063E9, 0.0, 2023-02-28 12:21:01.253
97.0, 23027.90707682456, -4359.663052518732, 15947.165006061197, -3319.882252202303, 14908.211220289615, 6836.415152122397, -187500.02235174447, -187500.02235174447, -0.212, -0.754, -0.614, 192.0, 0.0, 0.0, 0.0, 0.0, 0.0, 0.0, 0.0, 0.0, 0.0, 1.6776156612574816E9, 0.0, 2023-02-28 12:21:01.257
98.0, 23067.201443576985, -4365.563913054933, 16109.148098128808, -3323.9502696931686, 14988.185761950705, 6935.165159125943, -187500.02235174447, -187500.02235174447, -0.212, -0.77, -0.62, 192.0, 249.0, 96.0, 231.0, 240.0, 236.0, 160.0, 0.0, 0.0, 0.0, 1.6776156612613149E9, 0.0, 2023-02-28 12:21:01.261
99.0, 23116.1070604452, -4370.280131135003, 16359.822912195077, -3326.2524993720654, 15111.969722744194, 7021.107616556599, -187500.02235174447, -187500.02235174447, -0.212, -0.77, -0.62, 192.0, 0.0, 0.0, 0.0, 0.0, 0.0, 0.0, 0.0, 0.0, 0.0, 1.6776156612653089E9, 0.0, 2023-02-28 12:21:01.265
100.0, 23100.639653282127, -4370.347186368369, 16222.583201239491, -3322.3409440923865, 15043.3498672664, 6931.253603846265, -187500.02235174447, -187500.02235174447, -0.212, -0.77, -0.62, 192.0, 0.0, 0.0, 0.0, 0.0, 0.0, 0.0, 0.0, 0.0, 0.0, 1.6776156612703793E9, 0.0, 2023-02-28 12:21:01.270
101.0, 23065.793283676303, -4369.855447990352, 15959.25729981152, -3320.552804535962, 14903.226781276082, 6838.3597538900085, -187500.02235174447, -187500.02235174447, -0.212, -0.77, -0.62, 192.0, 0.0, 0.0, 0.0, 0.0, 0.0, 0.0, 0.0, 0.0, 0.0, 1.67761566127345E9, 0.0, 2023-02-28 12:21:01.273
102.0, 23097.845685225213, -4366.837962488886, 16052.955812568167, -3322.6315167703056, 14948.600822520355, 6912.902821648458, -187500.02235174447, -187500.02235174447, -0.212, -0.77, -0.62, 192.0, 0.0, 0.0, 0.0, 0.0, 0.0, 0.0, 0.0, 0.0, 0.0, 1.6776156612773092E9, 0.0, 2023-02-28 12:21:01.277
103.0, 23146.52778464887, -4368.782564256498, 16332.933763615343, -3325.0455051714785, 15100.503277838621, 7018.850090366614, -187500.02235174447, -187500.02235174447, -0.212, -0.77, -0.62, 192.0, 0.0, 0.0, 0.0, 0.0, 0.0, 0.0, 0.0, 0.0, 0.0, 1.6776156612813766E9, 0.0, 2023-02-28 12:21:01.281
104.0, 23139.19641246753, -4370.526000324011, 16269.097181450987, -3323.0785516594115, 15065.947480910718, 6962.501342594785, -187500.02235174447, -187500.02235174447, -0.212, -0.77, -0.62, 192.0, 0.0, 0.0, 0.0, 0.0, 0.0, 0.0, 0.0, 0.0, 0.0, 1.6776156612853236E9, 0.0, 2023-02-28 12:21:01.285
105.0, 23103.32186261676, -4369.9672067126285, 15985.989986180066, -3319.837548713392, 14915.296723281948, 6849.759143562215, -187500.02235174447, -187500.02235174447, -0.212, -0.77, -0.62, 192.0, 0.0, 0.0, 0.0, 0.0, 0.0, 0.0, 0.0, 0.0, 0.0, 1.6776156612893305E9, 0.0, 2023-02-28 12:21:01.289
106.0, 23113.916589488577, -4373.454078847656, 16008.632303313292, -3323.123255148322, 14921.734025685077, 6889.41113822593, -187500.02235174447, -187500.02235174447, -0.212, -0.77, -0.62, 192.0, 0.0, 0.0, 0.0, 0.0, 0.0, 0.0, 0.0, 0.0, 0.0, 1.6776156612933812E9, 0.0, 2023-02-28 12:21:01.293
107.0, 23170.91353784961, -4376.717433538131, 16301.328396955538, -3326.9454034501796, 15071.64717574682, 7006.199003004909, -187500.02235174447, -187500.02235174447, -0.212, -0.77, -0.62, 192.0, 0.0, 0.0, 0.0, 0.0, 0.0, 0.0, 0.0, 0.0, 0.0, 1.67761566129936E9, 0.0, 2023-02-28 12:21:01.299
108.0, 23171.762904138912, -4379.3549393838575, 16311.520792427158, -3324.9560981936575, 15080.543170040033, 6976.784107301725, -187500.02235174447, -187500.02235174447, -0.212, -0.762, -0.626, 192.0, 249.0, 96.0, 232.0, 48.0, 236.0, 112.0, 0.0, 0.0, 0.0, 1.6776156613023124E9, 0.0, 2023-02-28 12:21:01.302
109.0, 23133.92140077608, -4379.936084739696, 16021.97629475311, -3322.4079993257524, 14932.708732212632, 6855.011803509213, -187500.02235174447, -187500.02235174447, -0.212, -0.762, -0.626, 192.0, 0.0, 0.0, 0.0, 0.0, 0.0, 0.0, 0.0, 0.0, 0.0, 1.677615661306322E9, 0.0, 2023-02-28 12:21:01.306
110.0, 23146.30426720432, -4380.830154517907, 15969.49439877205, -3325.090208660389, 14899.605798674322, 6864.757164091727, -187500.02235174447, -187500.02235174447, -0.212, -0.762, -0.626, 192.0, 0.0, 0.0, 0.0, 0.0, 0.0, 0.0, 0.0, 0.0, 0.0, 1.6776156613092937E9, 0.0, 2023-02-28 12:21:01.309
111.0, 23203.077698120796, -4382.43948011869, 16255.440265588793, -3329.001763940068, 15040.220623042658, 6994.106709254588, -187500.02235174447, -187500.02235174447, -0.212, -0.762, -0.626, 192.0, 0.0, 0.0, 0.0, 0.0, 0.0, 0.0, 0.0, 0.0, 0.0, 1.6776156613133976E9, 0.0, 2023-02-28 12:21:01.313
112.0, 23217.06989014982, -4383.646474319276, 16343.349676531516, -3327.995935439579, 15095.340024869445, 6996.72186335586, -187500.02235174447, -187500.02235174447, -0.212, -0.762, -0.626, 192.0, 0.0, 0.0, 0.0, 0.0, 0.0, 0.0, 0.0, 0.0, 0.0, 1.6776156613173373E9, 0.0, 2023-02-28 12:21:01.317
113.0, 23188.7725816694, -4381.098375451372, 16068.356164497873, -3323.3020691039646, 14960.849578481864, 6870.792135094659, -187500.02235174447, -187500.02235174447, -0.212, -0.762, -0.626, 192.0, 0.0, 0.0, 0.0, 0.0, 0.0, 0.0, 0.0, 0.0, 0.0, 1.6776156613214216E9, 0.0, 2023-02-28 12:21:01.321
114.0, 23200.574302741803, -4383.042977218983, 15947.410875250207, -3324.2184906266325, 14895.448374205635, 6850.317937173598, -187500.02235174447, -187500.02235174447, -0.212, -0.762, -0.626, 192.0, 0.0, 0.0, 0.0, 0.0, 0.0, 0.0, 0.0, 0.0, 0.0, 1.677615661326319E9, 0.0, 2023-02-28 12:21:01.326
115.0, 23260.476977882026, -4385.188744686692, 16206.959331865231, -3328.3088598619534, 15023.479166445633, 6976.717052068359, -187500.02235174447, -187500.02235174447, -0.212, -0.762, -0.626, 192.0, 0.0, 0.0, 0.0, 0.0, 0.0, 0.0, 0.0, 0.0, 0.0, 1.6776156613294122E9, 0.0, 2023-02-28 12:21:01.329
116.0, 23282.94048105961, -4384.898172008774, 16360.7616854622, -3327.392438339286, 15106.068862207994, 7026.114407314588, -187500.02235174447, -187500.02235174447, -0.212, -0.762, -0.626, 192.0, 0.0, 0.0, 0.0, 0.0, 0.0, 0.0, 0.0, 0.0, 0.0, 1.6776156613334377E9, 0.0, 2023-02-28 12:21:01.333
117.0, 23253.883213267713, -4382.573590585422, 16116.032435421042, -3322.8550342148587, 14984.721241560132, 6910.667647202927, -187500.02235174447, -187500.02235174447, -0.212, -0.762, -0.626, 192.0, 0.0, 0.0, 0.0, 0.0, 0.0, 0.0, 0.0, 0.0, 0.0, 1.677615661337464E9, 0.0, 2023-02-28 12:21:01.337
118.0, 23243.444948607084, -4385.68048306471, 15933.284572754452, -3323.3467725928754, 14888.09465027984, 6860.4879809007625, -187500.02235174447, -187500.02235174447, -0.212, -0.76, -0.638, 192.0, 249.0, 96.0, 232.0, 64.0, 236.0, 16.0, 0.0, 0.0, 0.0, 1.677615661341411E9, 0.0, 2023-02-28 12:21:01.341
119.0, 23297.111487044276, -4387.58038134341, 16148.040133481043, -3327.1689208947328, 14997.662901599753, 6975.733575312326, -187500.02235174447, -187500.02235174447, -0.212, -0.76, -0.638, 192.0, 0.0, 0.0, 0.0, 0.0, 0.0, 0.0, 0.0, 0.0, 0.0, 1.6776156613454523E9, 0.0, 2023-02-28 12:21:01.345
120.0, 23347.04528415743, -4386.060462720449, 16363.019211652187, -3327.057162172456, 15108.572257586988, 7045.895701157535, -187500.02235174447, -187500.02235174447, -0.212, -0.76, -0.638, 192.0, 0.0, 0.0, 0.0, 0.0, 0.0, 0.0, 0.0, 0.0, 0.0, 1.6776156613494525E9, 0.0, 2023-02-28 12:21:01.349
121.0, 23331.33200780535, -4385.479317364611, 16168.782552335568, -3323.2797173595095, 15008.97288429414, 6946.877473220525, -187500.02235174447, -187500.02235174447, -0.212, -0.76, -0.638, 192.0, 0.0, 0.0, 0.0, 0.0, 0.0, 0.0, 0.0, 0.0, 0.0, 1.6776156613543806E9, 0.0, 2023-02-28 12:21:01.354
122.0, 23310.924865117653, -4381.657169062754, 15936.078540811366, -3320.262231858043, 14896.409499217214, 6871.127411261489, -187500.02235174447, -187500.02235174447, -0.212, -0.76, -0.638, 192.0, 0.0, 0.0, 0.0, 0.0, 0.0, 0.0, 0.0, 0.0, 0.0, 1.6776156613573399E9, 0.0, 2023-02-28 12:21:01.357
123.0, 23360.456330830613, -4382.953570241162, 16090.663205464269, -3323.771455737526, 14979.781506035508, 6960.713203038359, -187500.02235174447, -187500.02235174447, -0.212, -0.76, -0.638, 192.0, 0.0, 0.0, 0.0, 0.0, 0.0, 0.0, 0.0, 0.0, 0.0, 1.6776156613613605E9, 0.0, 2023-02-28 12:21:01.361
124.0, 23418.749680370056, -4382.148907440771, 16348.71409520079, -3325.447836571674, 15110.695673310242, 7053.674108227981, -187500.02235174447, -187500.02235174447, -0.212, -0.76, -0.638, 192.0, 0.0, 0.0, 0.0, 0.0, 0.0, 0.0, 0.0, 0.0, 0.0, 1.6776156613655152E9, 0.0, 2023-02-28 12:21:01.365
125.0, 23404.891598807764, -4381.858334762852, 16217.978741881698, -3321.9609644366465, 15045.003896356095, 6973.47604912234, -187500.02235174447, -187500.02235174447, -0.212, -0.76, -0.638, 192.0, 0.0, 0.0, 0.0, 0.0, 0.0, 0.0, 0.0, 0.0, 0.0, 1.677615661369387E9, 0.0, 2023-02-28 12:21:01.369
126.0, 23378.985926984064, -4383.467660363634, 15952.30590728592, -3320.865728958336, 14906.780708644475, 6875.865981086014, -187500.02235174447, -187500.02235174447, -0.212, -0.76, -0.638, 192.0, 0.0, 0.0, 0.0, 0.0, 0.0, 0.0, 0.0, 0.0, 0.0, 1.6776156613734424E9, 0.0, 2023-02-28 12:21:01.373
127.0, 23419.219067003618, -4386.328683653914, 16039.41065542825, -3324.6431737712833, 14950.701886499153, 6941.021316173234, -187500.02235174447, -187500.02235174447, -0.212, -0.76, -0.638, 192.0, 0.0, 0.0, 0.0, 0.0, 0.0, 0.0, 0.0, 0.0, 0.0, 1.6776156613774228E9, 0.0, 2023-02-28 12:21:01.377
128.0, 23484.106181157375, -4388.027416232517, 16325.401225733904, -3327.548900550473, 15102.760804028609, 7049.91901515949, -187500.02235174447, -187500.02235174447, -0.212, -0.76, -0.638, 192.0, 0.0, 0.0, 0.0, 0.0, 0.0, 0.0, 0.0, 0.0, 0.0, 1.6776156613824148E9, 0.0, 2023-02-28 12:21:01.382
129.0, 23493.538617317514, -4384.473488864122, 16268.896015750888, -3323.838510970892, 15076.385745571346, 6995.827793577647, -187500.02235174447, -187500.02235174447, -0.212, -0.76, -0.64, 192.0, 249.0, 96.0, 232.0, 64.0, 236.0, 0.0, 0.0, 0.0, 0.0, 1.6776156613854067E9, 0.0, 2023-02-28 12:21:01.385
130.0, 23465.107198370362, -4382.886515007796, 15982.369003578307, -3320.8210254694254, 14931.814662434419, 6888.070033558612, -187500.02235174447, -187500.02235174447, -0.212, -0.76, -0.64, 192.0, 0.0, 0.0, 0.0, 0.0, 0.0, 0.0, 0.0, 0.0, 0.0, 1.677615661388411E9, 0.0, 2023-02-28 12:21:01.388
131.0, 23483.256814868073, -4384.24997141957, 15994.036614183977, -3323.3467725928754, 14942.76701721752, 6921.731760708304, -187500.02235174447, -187500.02235174447, -0.212, -0.76, -0.64, 192.0, 0.0, 0.0, 0.0, 0.0, 0.0, 0.0, 0.0, 0.0, 0.0, 1.677615661393421E9, 0.0, 2023-02-28 12:21:01.393
132.0, 23544.90292607581, -4384.1158609528375, 16286.822114804045, -3326.9901069390903, 15088.813315488496, 7043.995802878833, -187500.02235174447, -187500.02235174447, -0.212, -0.76, -0.64, 192.0, 0.0, 0.0, 0.0, 0.0, 0.0, 0.0, 0.0, 0.0, 0.0, 1.6776156613973987E9, 0.0, 2023-02-28 12:21:01.397
133.0, 23564.058371074007, -4382.215962674137, 16308.637417392423, -3323.749103993071, 15104.772461029586, 7025.220337536376, -187500.02235174447, -187500.02235174447, -0.212, -0.76, -0.64, 192.0, 0.0, 0.0, 0.0, 0.0, 0.0, 0.0, 0.0, 0.0, 0.0, 1.677615661401549E9, 0.0, 2023-02-28 12:21:01.401
134.0, 23545.84169934293, -4378.304407394458, 16020.791652296979, -3319.0552376574565, 14961.877758726807, 6900.296437775664, -187500.02235174447, -187500.02235174447, -0.212, -0.76, -0.64, 192.0, 0.0, 0.0, 0.0, 0.0, 0.0, 0.0, 0.0, 0.0, 0.0, 1.6776156614056308E9, 0.0, 2023-02-28 12:21:01.405
135.0, 23578.47524624768, -4376.046881204472, 15956.262166054508, -3319.591679524384, 14930.205336833638, 6905.817318656125, -187500.02235174447, -187500.02235174447, -0.212, -0.76, -0.64, 192.0, 0.0, 0.0, 0.0, 0.0, 0.0, 0.0, 0.0, 0.0, 0.0, 1.6776156614104776E9, 0.0, 2023-02-28 12:21:01.410
136.0, 23630.510107339636, -4381.478355107111, 16240.062265403541, -3324.844339471381, 15074.977585670662, 7030.048314338722, -187500.02235174447, -187500.02235174447, -0.212, -0.76, -0.64, 192.0, 0.0, 0.0, 0.0, 0.0, 0.0, 0.0, 0.0, 0.0, 0.0, 1.6776156614134853E9, 0.0, 2023-02-28 12:21:01.413
137.0, 23611.399365830348, -4388.496802866078, 16344.422560265371, -3327.839473228392, 15124.84432755045, 7036.150340575021, -187500.02235174447, -187500.02235174447, -0.212, -0.76, -0.64, 192.0, 0.0, 0.0, 0.0, 0.0, 0.0, 0.0, 0.0, 0.0, 0.0, 1.6776156614165237E9, 0.0, 2023-02-28 12:21:01.416
138.0, 23569.176920554273, -4387.401567387768, 16075.396964001295, -3324.4420080711852, 14991.337357918903, 6913.528670493206, -187500.02235174447, -187500.02235174447, -0.212, -0.76, -0.64, 192.0, 0.0, 0.0, 0.0, 0.0, 0.0, 0.0, 0.0, 0.0, 0.0, 1.6776156614215612E9, 0.0, 2023-02-28 12:21:01.421
139.0, 23572.775551411578, -4387.446270876679, 15944.751017660024, -3325.2690226160316, 14922.225764063092, 6889.858173115036, -187500.02235174447, -187500.02235174447, -0.2, -0.77, -0.634, 192.0, 249.0, 192.0, 231.0, 240.0, 236.0, 48.0, 0.0, 0.0, 0.0, 1.677615661425521E9, 0.0, 2023-02-28 12:21:01.425
140.0, 23645.77634880261, -4387.110994709849, 16197.616302682914, -3328.711191262149, 15046.479111490145, 7007.450700694407, -187500.02235174447, -187500.02235174447, -0.2, -0.77, -0.634, 192.0, 0.0, 0.0, 0.0, 0.0, 0.0, 0.0, 0.0, 0.0, 0.0, 1.6776156614295216E9, 0.0, 2023-02-28 12:21:01.429
141.0, 23681.91911958684, -4389.033244733006, 16360.985202906753, -3328.331211606409, 15136.891917811861, 7057.2503873408305, -187500.02235174447, -187500.02235174447, -0.2, -0.77, -0.634, 192.0, 0.0, 0.0, 0.0, 0.0, 0.0, 0.0, 0.0, 0.0, 0.0, 1.6776156614335177E9, 0.0, 2023-02-28 12:21:01.433
142.0, 23651.029008749607, -4391.827212789919, 16126.224830892663, -3324.2408423710876, 15020.72990187763, 6943.480008063318, -187500.02235174447, -187500.02235174447, -0.2, -0.77, -0.634, 192.0, 0.0, 0.0, 0.0, 0.0, 0.0, 0.0, 0.0, 0.0, 0.0, 1.677615661437558E9, 0.0, 2023-02-28 12:21:01.437
143.0, 23654.694694840276, -4392.765986057042, 15936.994962334033, -3324.0843801599003, 14922.650447207743, 6885.633693412983, -187500.02235174447, -187500.02235174447, -0.2, -0.77, -0.634, 192.0, 0.0, 0.0, 0.0, 0.0, 0.0, 0.0, 0.0, 0.0, 0.0, 1.6776156614405115E9, 0.0, 2023-02-28 12:21:01.440
144.0, 23708.6965094443, -4393.771814557531, 16142.519252600581, -3327.5712522949284, 15025.468471702156, 6992.363273187074, -187500.02235174447, -187500.02235174447, -0.2, -0.77, -0.634, 192.0, 0.0, 0.0, 0.0, 0.0, 0.0, 0.0, 0.0, 0.0, 0.0, 1.6776156614444826E9, 0.0, 2023-02-28 12:21:01.444
145.0, 23724.096861374004, -4399.20328846017, 16362.23690059625, -3328.1523976507665, 15137.271897467603, 7060.334928075663, -187500.02235174447, -187500.02235174447, -0.2, -0.77, -0.634, 192.0, 0.0, 0.0, 0.0, 0.0, 0.0, 0.0, 0.0, 0.0, 0.0, 1.677615661449521E9, 0.0, 2023-02-28 12:21:01.449
146.0, 23681.382677719914, -4407.674599608731, 16181.835971097467, -3325.425484827219, 15047.037905101528, 6957.561607070161, -187500.02235174447, -187500.02235174447, -0.2, -0.77, -0.634, 192.0, 0.0, 0.0, 0.0, 0.0, 0.0, 0.0, 0.0, 0.0, 0.0, 1.6776156614535449E9, 0.0, 2023-02-28 12:21:01.453
147.0, 23651.87837503891, -4413.396646189291, 15948.327296772874, -3325.4701883161297, 14926.785519931975, 6876.089498530567, -187500.02235174447, -187500.02235174447, -0.2, -0.77, -0.634, 192.0, 0.0, 0.0, 0.0, 0.0, 0.0, 0.0, 0.0, 0.0, 0.0, 1.6776156614575691E9, 0.0, 2023-02-28 12:21:01.457
148.0, 23706.684852443323, -4416.056503779471, 16092.987786887621, -3329.2699848735315, 15002.513230146556, 6967.463429863862, -187500.02235174447, -187500.02235174447, -0.2, -0.77, -0.634, 192.0, 0.0, 0.0, 0.0, 0.0, 0.0, 0.0, 0.0, 0.0, 0.0, 1.6776156614615276E9, 0.0, 2023-02-28 12:21:01.461
149.0, 23746.426254084858, -4425.734809128619, 16353.676182469868, -3333.1368366642996, 15134.299115455045, 7057.518608274295, -187500.02235174447, -187500.02235174447, -0.196, -0.77, -0.63, 192.0, 249.0, 224.0, 231.0, 240.0, 236.0, 80.0, 0.0, 0.0, 0.0, 1.6776156614665973E9, 0.0, 2023-02-28 12:21:01.466
150.0, 23675.884148583908, -4433.177940032237, 16237.73768398019, -3331.303993618965, 15069.412001301289, 6981.433270148429, -187500.02235174447, -187500.02235174447, -0.196, -0.77, -0.63, 192.0, 0.0, 0.0, 0.0, 0.0, 0.0, 0.0, 0.0, 0.0, 0.0, 1.677615661469565E9, 0.0, 2023-02-28 12:21:01.469
151.0, 23642.803566790055, -4432.753256887586, 15973.428305796184, -3329.8287784849144, 14935.167424102716, 6888.025330069701, -187500.02235174447, -187500.02235174447, -0.196, -0.77, -0.63, 192.0, 0.0, 0.0, 0.0, 0.0, 0.0, 0.0, 0.0, 0.0, 0.0, 1.6776156614726129E9, 0.0, 2023-02-28 12:21:01.472
152.0, 23743.431120327845, -4439.548187201999, 16046.294992720485, -3333.4274093422187, 14977.76984903453, 6942.876510963025, -187500.02235174447, -187500.02235174447, -0.196, -0.77, -0.63, 192.0, 0.0, 0.0, 0.0, 0.0, 0.0, 0.0, 0.0, 0.0, 0.0, 1.6776156614775183E9, 0.0, 2023-02-28 12:21:01.477
153.0, 23759.6584868024, -4451.484018741134, 16277.166161199351, -3336.7354675216043, 15090.288530622547, 7028.684857926948, -187500.02235174447, -187500.02235174447, -0.196, -0.77, -0.63, 192.0, 0.0, 0.0, 0.0, 0.0, 0.0, 0.0, 0.0, 0.0, 0.0, 1.6776156614815664E9, 0.0, 2023-02-28 12:21:01.481
154.0, 23643.47411912371, -4453.607434464388, 16227.388826297383, -3334.7908657539924, 15066.707440222197, 6981.4109184039735, -187500.02235174447, -187500.02235174447, -0.196, -0.77, -0.63, 192.0, 0.0, 0.0, 0.0, 0.0, 0.0, 0.0, 0.0, 0.0, 0.0, 1.6776156614855733E9, 0.0, 2023-02-28 12:21:01.485
155.0, 23652.52657562811, -4455.060297853983, 16049.983030555612, -3334.7685140095373, 14975.557026333456, 6902.241039543276, -187500.02235174447, -187500.02235174447, -0.196, -0.77, -0.63, 192.0, 0.0, 0.0, 0.0, 0.0, 0.0, 0.0, 0.0, 0.0, 0.0, 1.677615661489564E9, 0.0, 2023-02-28 12:21:01.489
156.0, 23673.805436349565, -4458.994204878117, 16085.030565861533, -3336.4672465881404, 14996.433555654712, 6940.75309523977, -187500.02235174447, -187500.02235174447, -0.196, -0.77, -0.63, 192.0, 0.0, 0.0, 0.0, 0.0, 0.0, 0.0, 0.0, 0.0, 0.0, 1.6776156614925847E9, 0.0, 2023-02-28 12:21:01.492
157.0, 23664.082427511505, -4458.457763011189, 16269.186588428807, -3337.9424617221907, 15092.32253936798, 7021.5546514457055, -187500.02235174447, -187500.02235174447, -0.196, -0.77, -0.63, 192.0, 0.0, 0.0, 0.0, 0.0, 0.0, 0.0, 0.0, 0.0, 0.0, 1.6776156614966624E9, 0.0, 2023-02-28 12:21:01.496
158.0, 23655.76757857413, -4457.183713577237, 16256.848425489477, -3335.9755082101237, 15087.181638143258, 7001.281619224742, -187500.02235174447, -187500.02235174447, -0.196, -0.77, -0.63, 192.0, 0.0, 0.0, 0.0, 0.0, 0.0, 0.0, 0.0, 0.0, 0.0, 1.6776156615005548E9, 0.0, 2023-02-28 12:21:01.500
159.0, 23644.703465068756, -4464.448030525212, 16072.51358896656, -3335.841397743392, 14989.549218362477, 6923.788121198192, -187500.02235174447, -187500.02235174447, -0.198, -0.766, -0.626, 192.0, 249.0, 208.0, 232.0, 16.0, 236.0, 112.0, 0.0, 0.0, 0.0, 1.6776156615055888E9, 0.0, 2023-02-28 12:21:01.505
160.0, 23653.15242447286, -4466.683204970742, 16061.494178950094, -3337.584833810906, 14976.696965300676, 6942.652993518472, -187500.02235174447, -187500.02235174447, -0.198, -0.766, -0.626, 192.0, 0.0, 0.0, 0.0, 0.0, 0.0, 0.0, 0.0, 0.0, 0.0, 1.6776156615095365E9, 0.0, 2023-02-28 12:21:01.509
161.0, 23693.944358103796, -4459.284777556036, 16243.035047416097, -3337.2719093885316, 15075.916358937784, 7024.77330264727, -187500.02235174447, -187500.02235174447, -0.198, -0.766, -0.626, 192.0, 0.0, 0.0, 0.0, 0.0, 0.0, 0.0, 0.0, 0.0, 0.0, 1.6776156615136087E9, 0.0, 2023-02-28 12:21:01.513
162.0, 23717.21252408177, -4460.69293745672, 16280.161294956362, -3336.0202116990345, 15102.090251694948, 7014.782072875747, -187500.02235174447, -187500.02235174447, -0.198, -0.766, -0.626, 192.0, 0.0, 0.0, 0.0, 0.0, 0.0, 0.0, 0.0, 0.0, 0.0, 1.677615661517658E9, 0.0, 2023-02-28 12:21:01.517
163.0, 23686.63533766691, -4462.54813224651, 16100.386214302329, -3333.293298875487, 15008.816422082953, 6940.127246395022, -187500.02235174447, -187500.02235174447, -0.198, -0.766, -0.626, 192.0, 0.0, 0.0, 0.0, 0.0, 0.0, 0.0, 0.0, 0.0, 0.0, 1.6776156615206575E9, 0.0, 2023-02-28 12:21:01.520
164.0, 23693.989061592707, -4460.782344434541, 16041.042332773488, -3333.8520924868694, 14974.864122255341, 6938.942603938891, -187500.02235174447, -187500.02235174447, -0.198, -0.766, -0.626, 192.0, 0.0, 0.0, 0.0, 0.0, 0.0, 0.0, 0.0, 0.0, 0.0, 1.6776156615245905E9, 0.0, 2023-02-28 12:21:01.524
165.0, 23743.140547649928, -4460.380013034345, 16209.73094817769, -3336.6013570548726, 15060.113675607881, 7019.475939211362, -187500.02235174447, -187500.02235174447, -0.198, -0.766, -0.626, 192.0, 0.0, 0.0, 0.0, 0.0, 0.0, 0.0, 0.0, 0.0, 0.0, 1.6776156615286057E9, 0.0, 2023-02-28 12:21:01.528
166.0, 23766.475768861266, -4459.888274656329, 16291.292463695107, -3335.863749487847, 15109.75690004312, 7037.647907453526, -187500.02235174447, -187500.02235174447, -0.198, -0.766, -0.626, 192.0, 0.0, 0.0, 0.0, 0.0, 0.0, 0.0, 0.0, 0.0, 0.0, 1.6776156615327277E9, 0.0, 2023-02-28 12:21:01.532
167.0, 23758.473844346267, -4457.675451955253, 16129.912868727788, -3333.315650619942, 15030.341151993412, 6959.215636159854, -187500.02235174447, -187500.02235174447, -0.198, -0.766, -0.626, 192.0, 0.0, 0.0, 0.0, 0.0, 0.0, 0.0, 0.0, 0.0, 0.0, 1.6776156615377047E9, 0.0, 2023-02-28 12:21:01.537
168.0, 23764.33000139356, -4456.401402521301, 16029.508832634549, -3333.248595386576, 14974.931177488706, 6937.042705660189, -187500.02235174447, -187500.02235174447, -0.198, -0.766, -0.626, 192.0, 0.0, 0.0, 0.0, 0.0, 0.0, 0.0, 0.0, 0.0, 0.0, 1.6776156615416844E9, 0.0, 2023-02-28 12:21:01.541
169.0, 23799.154019254926, -4460.447068267711, 16175.48807567216, -3336.5343018215067, 15048.356658024391, 7009.4623576953845, -187500.02235174447, -187500.02235174447, -0.202, -0.762, -0.63, 192.0, 249.0, 176.0, 232.0, 48.0, 236.0, 80.0, 0.0, 0.0, 0.0, 1.677615661545669E9, 0.0, 2023-02-28 12:21:01.545
170.0, 23836.48143249529, -4459.061260111483, 16297.640359120413, -3336.4448948436852, 15116.283609424068, 7044.666355212493, -187500.02235174447, -187500.02235174447, -0.202, -0.762, -0.63, 192.0, 0.0, 0.0, 0.0, 0.0, 0.0, 0.0, 0.0, 0.0, 0.0, 1.6776156615486512E9, 0.0, 2023-02-28 12:21:01.548
171.0, 23829.373577758503, -4457.40723102179, 16165.809770323012, -3333.51681632004, 15045.02624810055, 6978.460488135874, -187500.02235174447, -187500.02235174447, -0.202, -0.762, -0.63, 192.0, 0.0, 0.0, 0.0, 0.0, 0.0, 0.0, 0.0, 0.0, 0.0, 1.677615661552632E9, 0.0, 2023-02-28 12:21:01.552
172.0, 23806.91007458092, -4461.721117701664, 16028.659466345247, -3334.187368653699, 14971.354898375857, 6937.780313227215, -187500.02235174447, -187500.02235174447, -0.202, -0.762, -0.63, 192.0, 0.0, 0.0, 0.0, 0.0, 0.0, 0.0, 0.0, 0.0, 0.0, 1.6776156615566378E9, 0.0, 2023-02-28 12:21:01.556
173.0, 23850.071293124118, -4464.582140991944, 16143.301563656518, -3337.2495576440765, 15029.491785704111, 6999.001741290301, -187500.02235174447, -187500.02235174447, -0.202, -0.762, -0.63, 192.0, 0.0, 0.0, 0.0, 0.0, 0.0, 0.0, 0.0, 0.0, 0.0, 1.677615661560766E9, 0.0, 2023-02-28 12:21:01.560
174.0, 23885.364697619047, -4464.336271802935, 16299.294388210106, -3338.5012553335737, 15112.37205414439, 7052.802390194224, -187500.02235174447, -187500.02235174447, -0.202, -0.762, -0.63, 192.0, 0.0, 0.0, 0.0, 0.0, 0.0, 0.0, 0.0, 0.0, 0.0, 1.6776156615657413E9, 0.0, 2023-02-28 12:21:01.565
175.0, 23871.841892223587, -4462.704594457698, 16203.204238796741, -3335.908452976758, 15064.785190199042, 6996.3195319556635, -187500.02235174447, -187500.02235174447, -0.202, -0.762, -0.63, 192.0, 0.0, 0.0, 0.0, 0.0, 0.0, 0.0, 0.0, 0.0, 0.0, 1.6776156615697353E9, 0.0, 2023-02-28 12:21:01.569
176.0, 23864.15289213096, -4461.0058618790945, 16037.823681571923, -3334.522644820529, 14976.316985644937, 6935.053400403667, -187500.02235174447, -187500.02235174447, -0.202, -0.762, -0.63, 192.0, 0.0, 0.0, 0.0, 0.0, 0.0, 0.0, 0.0, 0.0, 0.0, 1.6776156615736368E9, 0.0, 2023-02-28 12:21:01.573
177.0, 23878.480360326812, -4460.938806645729, 16110.310388840484, -3336.154322165766, 15013.465584929656, 6988.004683018289, -187500.02235174447, -187500.02235174447, -0.202, -0.762, -0.63, 192.0, 0.0, 0.0, 0.0, 0.0, 0.0, 0.0, 0.0, 0.0, 0.0, 1.6776156615766249E9, 0.0, 2023-02-28 12:21:01.576
178.0, 23923.608532382077, -4461.922283401762, 16286.50919038167, -3337.4730750886292, 15103.565466828999, 7052.78003844977, -187500.02235174447, -187500.02235174447, -0.202, -0.762, -0.63, 192.0, 0.0, 0.0, 0.0, 0.0, 0.0, 0.0, 0.0, 0.0, 0.0, 1.6776156615806808E9, 0.0, 2023-02-28 12:21:01.580
179.0, 23917.104174745582, -4465.2303415811475, 16235.614268256935, -3336.7578192660594, 15076.542207782533, 7008.724750128359, -187500.02235174447, -187500.02235174447, -0.192, -0.76, -0.634, 192.0, 250.0, 0.0, 232.0, 64.0, 236.0, 48.0, 0.0, 0.0, 0.0, 1.6776156615846825E9, 0.0, 2023-02-28 12:21:01.584
180.0, 23890.125619188027, -4466.906722415295, 16055.660373647259, -3337.1377989218, 14978.44040136819, 6936.595670771083, -187500.02235174447, -187500.02235174447, -0.192, -0.76, -0.634, 192.0, 0.0, 0.0, 0.0, 0.0, 0.0, 0.0, 0.0, 0.0, 0.0, 1.677615661588696E9, 0.0, 2023-02-28 12:21:01.588
181.0, 23917.282988701223, -4464.895065414317, 16086.729298440136, -3339.484732089607, 14993.930160275719, 6966.658767063471, -187500.02235174447, -187500.02235174447, -0.192, -0.76, -0.634, 192.0, 0.0, 0.0, 0.0, 0.0, 0.0, 0.0, 0.0, 0.0, 0.0, 1.677615661592729E9, 0.0, 2023-02-28 12:21:01.592
182.0, 23961.89707063402, -4464.582140991944, 16274.819228031545, -3341.1387611792998, 15091.294359123036, 7044.8004656792245, -187500.02235174447, -187500.02235174447, -0.192, -0.76, -0.634, 192.0, 0.0, 0.0, 0.0, 0.0, 0.0, 0.0, 0.0, 0.0, 0.0, 1.6776156615977433E9, 0.0, 2023-02-28 12:21:01.597
183.0, 23971.843596916628, -4461.40819327929, 16270.572396585036, -3338.7247727781264, 15089.215646888691, 7025.265041025286, -187500.02235174447, -187500.02235174447, -0.192, -0.76, -0.634, 192.0, 0.0, 0.0, 0.0, 0.0, 0.0, 0.0, 0.0, 0.0, 0.0, 1.6776156616019528E9, 0.0, 2023-02-28 12:21:01.601
184.0, 23957.069093831673, -4462.011690379583, 16084.829400161434, -3336.8919297327916, 14993.550180619977, 6949.559682555161, -187500.02235174447, -187500.02235174447, -0.192, -0.76, -0.634, 192.0, 0.0, 0.0, 0.0, 0.0, 0.0, 0.0, 0.0, 0.0, 0.0, 1.6776156616047423E9, 0.0, 2023-02-28 12:21:01.604
185.0, 23967.41795151448, -4468.337234060435, 16066.411562730262, -3339.484732089607, 14984.96711074914, 6960.802610016181, -187500.02235174447, -187500.02235174447, -0.192, -0.76, -0.634, 192.0, 0.0, 0.0, 0.0, 0.0, 0.0, 0.0, 0.0, 0.0, 0.0, 1.677615661608663E9, 0.0, 2023-02-28 12:21:01.608
186.0, 24009.953321212928, -4469.231303838647, 16248.019486429632, -3340.04352570099, 15080.923149695773, 7040.084247599155, -187500.02235174447, -187500.02235174447, -0.192, -0.76, -0.634, 192.0, 0.0, 0.0, 0.0, 0.0, 0.0, 0.0, 0.0, 0.0, 0.0, 1.677615661612702E9, 0.0, 2023-02-28 12:21:01.612
187.0, 24021.37506262959, -4467.532571260044, 16290.666614850357, -3338.0095169555566, 15104.593647073943, 7037.357334775607, -187500.02235174447, -187500.02235174447, -0.192, -0.76, -0.634, 192.0, 0.0, 0.0, 0.0, 0.0, 0.0, 0.0, 0.0, 0.0, 0.0, 1.6776156616167119E9, 0.0, 2023-02-28 12:21:01.616
188.0, 24006.242931633347, -4463.665719469276, 16113.685502253236, -3335.237900643099, 15012.280942473524, 6959.528560582228, -187500.02235174447, -187500.02235174447, -0.192, -0.76, -0.634, 192.0, 0.0, 0.0, 0.0, 0.0, 0.0, 0.0, 0.0, 0.0, 0.0, 1.6776156616217096E9, 0.0, 2023-02-28 12:21:01.621
189.0, 24012.121440425093, -4463.710422958186, 16049.156016010764, -3336.3107843769535, 14978.663918812743, 6951.817208745148, -187500.02235174447, -187500.02235174447, -0.18, -0.758, -0.632, 192.0, 250.0, 96.0, 232.0, 80.0, 236.0, 64.0, 0.0, 0.0, 0.0, 1.677615661625701E9, 0.0, 2023-02-28 12:21:01.625
190.0, 24044.442062907467, -4467.443164282223, 16218.06814885952, -3339.8200082564367, 15064.941652410229, 7028.751913160314, -187500.02235174447, -187500.02235174447, -0.18, -0.758, -0.632, 192.0, 0.0, 0.0, 0.0, 0.0, 0.0, 0.0, 0.0, 0.0, 0.0, 1.6776156616297607E9, 0.0, 2023-02-28 12:21:01.629
191.0, 24074.14753128857, -4468.583103249443, 16308.682120881334, -3339.8870634898026, 15113.422586133789, 7048.980241892367, -187500.02235174447, -187500.02235174447, -0.18, -0.758, -0.632, 192.0, 0.0, 0.0, 0.0, 0.0, 0.0, 0.0, 0.0, 0.0, 0.0, 1.6776156616328917E9, 0.0, 2023-02-28 12:21:01.632
192.0, 24057.450778180457, -4466.258521826091, 16149.090665470441, -3336.847226243881, 15035.437349729224, 6973.85602877808, -187500.02235174447, -187500.02235174447, -0.18, -0.758, -0.632, 192.0, 0.0, 0.0, 0.0, 0.0, 0.0, 0.0, 0.0, 0.0, 0.0, 1.6776156616367385E9, 0.0, 2023-02-28 12:21:01.636
193.0, 24047.99599027586, -4469.141896860826, 16041.042332773488, -3337.7636477665483, 14977.278110656514, 6946.005755186768, -187500.02235174447, -187500.02235174447, -0.18, -0.758, -0.632, 192.0, 0.0, 0.0, 0.0, 0.0, 0.0, 0.0, 0.0, 0.0, 0.0, 1.677615661640684E9, 0.0, 2023-02-28 12:21:01.640
194.0, 24103.897703158582, -4471.377071306357, 16184.361718220916, -3340.289394889998, 15049.898928391807, 7018.850090366614, -187500.02235174447, -187500.02235174447, -0.18, -0.758, -0.632, 192.0, 0.0, 0.0, 0.0, 0.0, 0.0, 0.0, 0.0, 0.0, 0.0, 1.677615661644736E9, 0.0, 2023-02-28 12:21:01.644
195.0, 24122.40494756758, -4469.298359072013, 16313.957132572787, -3340.1776361677216, 15115.99303674615, 7058.4797332858725, -187500.02235174447, -187500.02235174447, -0.18, -0.758, -0.632, 192.0, 0.0, 0.0, 0.0, 0.0, 0.0, 0.0, 0.0, 0.0, 0.0, 1.677615661649818E9, 0.0, 2023-02-28 12:21:01.649
196.0, 24096.47692399942, -4469.700690472208, 16186.261616499618, -3338.0542204444673, 15046.277945790047, 6991.804479575691, -187500.02235174447, -187500.02235174447, -0.18, -0.758, -0.632, 192.0, 0.0, 0.0, 0.0, 0.0, 0.0, 0.0, 0.0, 0.0, 0.0, 1.6776156616537943E9, 0.0, 2023-02-28 12:21:01.653
197.0, 24088.810275651253, -4469.879504427851, 16043.433969430205, -3338.7024210336713, 14973.880645499308, 6946.989231942801, -187500.02235174447, -187500.02235174447, -0.18, -0.758, -0.632, 192.0, 0.0, 0.0, 0.0, 0.0, 0.0, 0.0, 0.0, 0.0, 0.0, 1.677615661656802E9, 0.0, 2023-02-28 12:21:01.656
198.0, 24132.91026746157, -4468.605454993899, 16151.035267238054, -3341.2505199015764, 15033.06806481696, 7008.970619317368, -187500.02235174447, -187500.02235174447, -0.18, -0.758, -0.632, 192.0, 0.0, 0.0, 0.0, 0.0, 0.0, 0.0, 0.0, 0.0, 0.0, 1.6776156616607673E9, 0.0, 2023-02-28 12:21:01.660
199.0, 24166.035552744335, -4468.940731160728, 16310.202039504295, -3342.0775344464228, 15116.462423379711, 7066.615768267605, -187500.02235174447, -187500.02235174447, -0.184, -0.762, -0.636, 192.0, 250.0, 64.0, 232.0, 48.0, 236.0, 32.0, 0.0, 0.0, 0.0, 1.6776156616648233E9, 0.0, 2023-02-28 12:21:01.664
200.0, 24148.31061939128, -4470.035966639039, 16221.376207038906, -3340.3340983789085, 15070.84251294643, 7014.178575775454, -187500.02235174447, -187500.02235174447, -0.184, -0.762, -0.636, 192.0, 0.0, 0.0, 0.0, 0.0, 0.0, 0.0, 0.0, 0.0, 0.0, 1.6776156616687465E9, 0.0, 2023-02-28 12:21:01.668
201.0, 24149.763482780872, -4467.800792193508, 16052.307611978962, -3339.104752433867, 14983.626006081822, 6954.164141912955, -187500.02235174447, -187500.02235174447, -0.184, -0.762, -0.636, 192.0, 0.0, 0.0, 0.0, 0.0, 0.0, 0.0, 0.0, 0.0, 0.0, 1.6776156616728249E9, 0.0, 2023-02-28 12:21:01.672
202.0, 24181.994698285427, -4467.197295093214, 16118.468775566671, -3340.714078034649, 15017.108919275872, 7000.208735490887, -187500.02235174447, -187500.02235174447, -0.184, -0.762, -0.636, 192.0, 0.0, 0.0, 0.0, 0.0, 0.0, 0.0, 0.0, 0.0, 0.0, 1.677615661677863E9, 0.0, 2023-02-28 12:21:01.677
203.0, 24223.837163905762, -4468.963082905184, 16299.204981232284, -3342.681031546716, 15108.125222697881, 7067.934521190467, -187500.02235174447, -187500.02235174447, -0.184, -0.762, -0.636, 192.0, 0.0, 0.0, 0.0, 0.0, 0.0, 0.0, 0.0, 0.0, 0.0, 1.6776156616818013E9, 0.0, 2023-02-28 12:21:01.681
204.0, 24217.399861502632, -4474.372205063368, 16255.753190011168, -3342.9269007357243, 15083.046565419027, 7026.874366626069, -187500.02235174447, -187500.02235174447, -0.184, -0.762, -0.636, 192.0, 0.0, 0.0, 0.0, 0.0, 0.0, 0.0, 0.0, 0.0, 0.0, 1.6776156616847937E9, 0.0, 2023-02-28 12:21:01.684
205.0, 24200.79251537234, -4473.5675422629765, 16070.9936703436, -3341.764610024048, 14989.146886962282, 6956.33226112512, -187500.02235174447, -187500.02235174447, -0.184, -0.762, -0.636, 192.0, 0.0, 0.0, 0.0, 0.0, 0.0, 0.0, 0.0, 0.0, 0.0, 1.6776156616887968E9, 0.0, 2023-02-28 12:21:01.688
206.0, 24236.488251267463, -4472.561713762488, 16090.506743253083, -3343.351583880375, 14998.646378355788, 6986.037729506223, -187500.02235174447, -187500.02235174447, -0.184, -0.762, -0.636, 192.0, 0.0, 0.0, 0.0, 0.0, 0.0, 0.0, 0.0, 0.0, 0.0, 1.6776156616928298E9, 0.0, 2023-02-28 12:21:01.692
207.0, 24272.742780773973, -4476.74148997563, 16277.255568177174, -3346.257310659565, 15091.786097501052, 7062.905378688023, -187500.02235174447, -187500.02235174447, -0.184, -0.762, -0.636, 192.0, 0.0, 0.0, 0.0, 0.0, 0.0, 0.0, 0.0, 0.0, 0.0, 1.6776156616968884E9, 0.0, 2023-02-28 12:21:01.696
208.0, 24260.404617834643, -4479.714271988186, 16281.636510090413, -3345.2067786701655, 15093.641292290842, 7040.643041210537, -187500.02235174447, -187500.02235174447, -0.184, -0.762, -0.636, 192.0, 0.0, 0.0, 0.0, 0.0, 0.0, 0.0, 0.0, 0.0, 0.0, 1.6776156617008116E9, 0.0, 2023-02-28 12:21:01.700
209.0, 24240.89154492516, -4482.664702256287, 16096.09467936691, -3344.42446761423, 15002.043843512994, 6958.634490804016, -187500.02235174447, -187500.02235174447, -0.198, -0.758, -0.624, 192.0, 249.0, 208.0, 232.0, 80.0, 236.0, 128.0, 0.0, 0.0, 0.0, 1.677615661705886E9, 0.0, 2023-02-28 12:21:01.705
210.0, 24248.111158384225, -4486.196277880225, 16071.619519188347, -3346.8161042709476, 14985.145924704782, 6967.441078119407, -187500.02235174447, -187500.02235174447, -0.198, -0.758, -0.624, 192.0, 0.0, 0.0, 0.0, 0.0, 0.0, 0.0, 0.0, 0.0, 0.0, 1.6776156617098863E9, 0.0, 2023-02-28 12:21:01.709
211.0, 24297.486161885998, -4487.447975569722, 16255.082637677508, -3349.3865548833082, 15076.095172893427, 7049.6731459704815, -187500.02235174447, -187500.02235174447, -0.198, -0.758, -0.624, 192.0, 0.0, 0.0, 0.0, 0.0, 0.0, 0.0, 0.0, 0.0, 0.0, 1.6776156617128108E9, 0.0, 2023-02-28 12:21:01.712
212.0, 24315.322853961334, -4486.375091835867, 16306.692815624812, -3349.0289269720233, 15104.101908695926, 7049.4943320148395, -187500.02235174447, -187500.02235174447, -0.198, -0.758, -0.624, 192.0, 0.0, 0.0, 0.0, 0.0, 0.0, 0.0, 0.0, 0.0, 0.0, 1.6776156617167852E9, 0.0, 2023-02-28 12:21:01.716
213.0, 24296.972071763525, -4486.4197953247785, 16130.963400717188, -3347.486656604607, 15014.024378541038, 6967.932816497424, -187500.02235174447, -187500.02235174447, -0.198, -0.758, -0.624, 192.0, 0.0, 0.0, 0.0, 0.0, 0.0, 0.0, 0.0, 0.0, 0.0, 1.6776156617208316E9, 0.0, 2023-02-28 12:21:01.720
214.0, 24290.221844938023, -4485.078690657459, 16058.677859148725, -3347.6878223047047, 14974.305328643959, 6956.019336702745, -187500.02235174447, -187500.02235174447, -0.198, -0.758, -0.624, 192.0, 0.0, 0.0, 0.0, 0.0, 0.0, 0.0, 0.0, 0.0, 0.0, 1.677615661724861E9, 0.0, 2023-02-28 12:21:01.724
215.0, 24326.029339555425, -4483.961103434694, 16221.510317505637, -3349.9453484946907, 15058.057315117994, 7032.48465448435, -187500.02235174447, -187500.02235174447, -0.198, -0.758, -0.624, 192.0, 0.0, 0.0, 0.0, 0.0, 0.0, 0.0, 0.0, 0.0, 0.0, 1.677615661728862E9, 0.0, 2023-02-28 12:21:01.728
216.0, 24345.073025831345, -4485.3692633353785, 16316.438176207326, -3349.7218310501376, 15110.002769232127, 7057.406849552018, -187500.02235174447, -187500.02235174447, -0.198, -0.758, -0.624, 192.0, 0.0, 0.0, 0.0, 0.0, 0.0, 0.0, 0.0, 0.0, 0.0, 1.6776156617328613E9, 0.0, 2023-02-28 12:21:01.732
217.0, 24325.0905662883, -4486.240981369136, 16160.959441776211, -3347.643118815794, 15029.625896170843, 6981.902656781991, -187500.02235174447, -187500.02235174447, -0.198, -0.758, -0.624, 192.0, 0.0, 0.0, 0.0, 0.0, 0.0, 0.0, 0.0, 0.0, 0.0, 1.6776156617378118E9, 0.0, 2023-02-28 12:21:01.737
218.0, 24325.53760117741, -4486.151574391315, 16044.708018864158, -3347.6878223047047, 14967.063363440438, 6950.453752333374, -187500.02235174447, -187500.02235174447, -0.198, -0.758, -0.624, 192.0, 0.0, 0.0, 0.0, 0.0, 0.0, 0.0, 0.0, 0.0, 0.0, 1.6776156617408416E9, 0.0, 2023-02-28 12:21:01.740
219.0, 24367.15654935319, -4485.637484268843, 16182.350061219939, -3350.772363039537, 15035.97379159615, 7020.727636900859, -187500.02235174447, -187500.02235174447, -0.21, -0.764, -0.626, 192.0, 249.0, 112.0, 232.0, 32.0, 236.0, 112.0, 0.0, 0.0, 0.0, 1.6776156617449203E9, 0.0, 2023-02-28 12:21:01.744
220.0, 24390.78234324245, -4486.17392613577, 16317.376949474448, -3351.1076392063665, 15103.453708106723, 7060.960776920411, -187500.02235174447, -187500.02235174447, -0.21, -0.764, -0.626, 192.0, 0.0, 0.0, 0.0, 0.0, 0.0, 0.0, 0.0, 0.0, 0.0, 1.6776156617488773E9, 0.0, 2023-02-28 12:21:01.748
221.0, 24378.332421580842, -4486.576257535966, 16191.96131133572, -3348.3360228939086, 15043.908660877785, 6991.156278986487, -187500.02235174447, -187500.02235174447, -0.21, -0.764, -0.626, 192.0, 0.0, 0.0, 0.0, 0.0, 0.0, 0.0, 0.0, 0.0, 0.0, 1.677615661752848E9, 0.0, 2023-02-28 12:21:01.752
222.0, 24377.818331458373, -4486.084519157948, 16041.0870362624, -3346.927862993224, 14967.666860540732, 6942.004792929268, -187500.02235174447, -187500.02235174447, -0.21, -0.764, -0.626, 192.0, 0.0, 0.0, 0.0, 0.0, 0.0, 0.0, 0.0, 0.0, 0.0, 1.6776156617569344E9, 0.0, 2023-02-28 12:21:01.756
223.0, 24413.089384208844, -4481.815335966985, 16141.938107244743, -3347.3748978823305, 15018.338265220913, 7004.075587281655, -187500.02235174447, -187500.02235174447, -0.21, -0.764, -0.626, 192.0, 0.0, 0.0, 0.0, 0.0, 0.0, 0.0, 0.0, 0.0, 0.0, 1.6776156617608416E9, 0.0, 2023-02-28 12:21:01.760
224.0, 24434.614114119307, -4483.894048201329, 16307.877458080944, -3348.3136711494535, 15104.258370907113, 7061.094887387144, -187500.02235174447, -187500.02235174447, -0.21, -0.764, -0.626, 192.0, 0.0, 0.0, 0.0, 0.0, 0.0, 0.0, 0.0, 0.0, 0.0, 1.6776156617660053E9, 0.0, 2023-02-28 12:21:01.766
225.0, 24429.204991961124, -4486.240981369136, 16223.857250673444, -3347.0396217155007, 15064.494617521123, 7005.975485560356, -187500.02235174447, -187500.02235174447, -0.21, -0.764, -0.626, 192.0, 0.0, 0.0, 0.0, 0.0, 0.0, 0.0, 0.0, 0.0, 0.0, 1.6776156617688406E9, 0.0, 2023-02-28 12:21:01.768
226.0, 24415.2127999321, -4485.324559846468, 16050.787693356002, -3345.1173716923445, 14973.433610610202, 6943.904691207968, -187500.02235174447, -187500.02235174447, -0.21, -0.764, -0.626, 192.0, 0.0, 0.0, 0.0, 0.0, 0.0, 0.0, 0.0, 0.0, 0.0, 1.6776156617728443E9, 0.0, 2023-02-28 12:21:01.772
227.0, 24474.1767018052, -4483.089385400937, 16110.75742372959, -3346.592586826395, 15002.893209802296, 6994.218467976865, -187500.02235174447, -187500.02235174447, -0.21, -0.764, -0.626, 192.0, 0.0, 0.0, 0.0, 0.0, 0.0, 0.0, 0.0, 0.0, 0.0, 1.6776156617769153E9, 0.0, 2023-02-28 12:21:01.776
228.0, 24484.54791123246, -4485.056338913005, 16293.46058290727, -3348.7383542941043, 15100.547981327532, 7065.073497900188, -187500.02235174447, -187500.02235174447, -0.21, -0.764, -0.626, 192.0, 0.0, 0.0, 0.0, 0.0, 0.0, 0.0, 0.0, 0.0, 0.0, 1.677615661780878E9, 0.0, 2023-02-28 12:21:01.780
229.0, 24466.13007380129, -4486.039815669038, 16255.149692910874, -3347.1513804377773, 15082.867751463386, 7028.908375371501, -187500.02235174447, -187500.02235174447, -0.198, -0.77, -0.62, 192.0, 249.0, 208.0, 231.0, 240.0, 236.0, 160.0, 0.0, 0.0, 0.0, 1.6776156617848861E9, 0.0, 2023-02-28 12:21:01.784
230.0, 24434.189430974657, -4486.464498813689, 16069.071420320442, -3345.6985170481826, 14986.375270649824, 6953.80651400167, -187500.02235174447, -187500.02235174447, -0.198, -0.77, -0.62, 192.0, 0.0, 0.0, 0.0, 0.0, 0.0, 0.0, 0.0, 0.0, 0.0, 1.6776156617889092E9, 0.0, 2023-02-28 12:21:01.788
231.0, 24448.002809048037, -4491.895972716328, 16085.90228389529, -3349.163037438755, 14990.845619540885, 6979.242799191809, -187500.02235174447, -187500.02235174447, -0.198, -0.77, -0.62, 192.0, 0.0, 0.0, 0.0, 0.0, 0.0, 0.0, 0.0, 0.0, 0.0, 1.67761566179392E9, 0.0, 2023-02-28 12:21:01.793
232.0, 24497.51192301654, -4493.438243083745, 16277.188512943807, -3351.845246773392, 15085.639367775842, 7057.652718741027, -187500.02235174447, -187500.02235174447, -0.198, -0.77, -0.62, 192.0, 0.0, 0.0, 0.0, 0.0, 0.0, 0.0, 0.0, 0.0, 0.0, 1.6776156617969413E9, 0.0, 2023-02-28 12:21:01.796
233.0, 24499.724745717616, -4491.806565738508, 16286.777411315134, -3349.52066535004, 15090.333234111456, 7041.894738900035, -187500.02235174447, -187500.02235174447, -0.198, -0.77, -0.62, 192.0, 0.0, 0.0, 0.0, 0.0, 0.0, 0.0, 0.0, 0.0, 0.0, 1.677615661799903E9, 0.0, 2023-02-28 12:21:01.799
234.0, 24470.823940136903, -4490.2419436266355, 16099.536848013026, -3347.061973459956, 14997.685253344209, 6960.735554782815, -187500.02235174447, -187500.02235174447, -0.198, -0.77, -0.62, 192.0, 0.0, 0.0, 0.0, 0.0, 0.0, 0.0, 0.0, 0.0, 0.0, 1.6776156618048956E9, 0.0, 2023-02-28 12:21:01.804
235.0, 24478.200015807157, -4490.845440726929, 16067.193873786196, -3349.2747961610316, 14981.569645591933, 6965.809400774169, -187500.02235174447, -187500.02235174447, -0.198, -0.77, -0.62, 192.0, 0.0, 0.0, 0.0, 0.0, 0.0, 0.0, 0.0, 0.0, 0.0, 1.677615661808908E9, 0.0, 2023-02-28 12:21:01.808
236.0, 24519.14841164928, -4492.611228538898, 16250.232309130706, -3352.225226429132, 15074.530550781556, 7046.499198257828, -187500.02235174447, -187500.02235174447, -0.198, -0.77, -0.62, 192.0, 0.0, 0.0, 0.0, 0.0, 0.0, 0.0, 0.0, 0.0, 0.0, 1.6776156618129601E9, 0.0, 2023-02-28 12:21:01.812
237.0, 24536.873345002336, -4493.304132617013, 16308.36919645896, -3351.152342695277, 15105.398309874334, 7051.461285526906, -187500.02235174447, -187500.02235174447, -0.198, -0.77, -0.62, 192.0, 0.0, 0.0, 0.0, 0.0, 0.0, 0.0, 0.0, 0.0, 0.0, 1.6776156618170009E9, 0.0, 2023-02-28 12:21:01.817
238.0, 24520.780088994514, -4494.824051239973, 16134.986714719143, -3349.18538918321, 15016.371311708846, 6970.816191532158, -187500.02235174447, -187500.02235174447, -0.198, -0.77, -0.62, 192.0, 0.0, 0.0, 0.0, 0.0, 0.0, 0.0, 0.0, 0.0, 0.0, 1.6776156618209248E9, 0.0, 2023-02-28 12:21:01.820
239.0, 24518.254341871067, -4496.969818707683, 16056.777960870024, -3349.610072327861, 14974.238273410592, 6954.208845401865, -187500.02235174447, -187500.02235174447, -0.196, -0.766, -0.63, 192.0, 249.0, 224.0, 232.0, 16.0, 236.0, 80.0, 0.0, 0.0, 0.0, 1.6776156618248768E9, 0.0, 2023-02-28 12:21:01.824
240.0, 24548.652714330285, -4496.992170452138, 16222.091462861476, -3351.3982118842855, 15057.766742440075, 7032.507006228806, -187500.02235174447, -187500.02235174447, -0.196, -0.766, -0.63, 192.0, 0.0, 0.0, 0.0, 0.0, 0.0, 0.0, 0.0, 0.0, 0.0, 1.677615661827972E9, 0.0, 2023-02-28 12:21:01.827
241.0, 24571.67501111925, -4496.187507651747, 16326.161185045385, -3351.0182322285455, 15115.501298368134, 7057.2503873408305, -187500.02235174447, -187500.02235174447, -0.196, -0.766, -0.63, 192.0, 0.0, 0.0, 0.0, 0.0, 0.0, 0.0, 0.0, 0.0, 0.0, 1.677615661832974E9, 0.0, 2023-02-28 12:21:01.832
242.0, 24547.870403274348, -4494.220554139681, 16172.761162848612, -3349.230092672121, 15039.393608497812, 6980.315682925664, -187500.02235174447, -187500.02235174447, -0.196, -0.766, -0.63, 192.0, 0.0, 0.0, 0.0, 0.0, 0.0, 0.0, 0.0, 0.0, 0.0, 1.6776156618369207E9, 0.0, 2023-02-28 12:21:01.836
243.0, 24547.2445544296, -4492.097138416426, 16051.055914289465, -3349.2747961610316, 14976.473447856122, 6947.570377298639, -187500.02235174447, -187500.02235174447, -0.196, -0.766, -0.63, 192.0, 0.0, 0.0, 0.0, 0.0, 0.0, 0.0, 0.0, 0.0, 0.0, 1.6776156618408947E9, 0.0, 2023-02-28 12:21:01.840
244.0, 24604.39796500182, -4490.890144215839, 16186.172209521797, -3350.817066528448, 15048.848396402407, 7018.2689450107755, -187500.02235174447, -187500.02235174447, -0.196, -0.766, -0.63, 192.0, 0.0, 0.0, 0.0, 0.0, 0.0, 0.0, 0.0, 0.0, 0.0, 1.6776156618449402E9, 0.0, 2023-02-28 12:21:01.844
245.0, 24628.180221102266, -4489.236115126147, 16327.457586223793, -3349.543017094495, 15130.18639447527, 7062.078364143177, -187500.02235174447, -187500.02235174447, -0.196, -0.766, -0.63, 192.0, 0.0, 0.0, 0.0, 0.0, 0.0, 0.0, 0.0, 0.0, 0.0, 1.6776156618489344E9, 0.0, 2023-02-28 12:21:01.848
246.0, 24607.72837492566, -4489.07965291496, 16208.188677810274, -3347.777229282526, 15067.735620467141, 6996.4312906779405, -187500.02235174447, -187500.02235174447, -0.196, -0.766, -0.63, 192.0, 0.0, 0.0, 0.0, 0.0, 0.0, 0.0, 0.0, 0.0, 0.0, 1.6776156618529284E9, 0.0, 2023-02-28 12:21:01.852
247.0, 24583.63319440284, -4492.566525049988, 16053.380495712818, -3348.7830577830146, 14987.023471239028, 6944.329374352619, -187500.02235174447, -187500.02235174447, -0.196, -0.766, -0.63, 192.0, 0.0, 0.0, 0.0, 0.0, 0.0, 0.0, 0.0, 0.0, 0.0, 1.677615661855928E9, 0.0, 2023-02-28 12:21:01.855
248.0, 24604.599130701918, -4495.919286718284, 16151.996392249632, -3351.487618862107, 15032.062236316471, 7003.092110525622, -187500.02235174447, -187500.02235174447, -0.196, -0.766, -0.63, 192.0, 0.0, 0.0, 0.0, 0.0, 0.0, 0.0, 0.0, 0.0, 0.0, 1.677615661860926E9, 0.0, 2023-02-28 12:21:01.860
249.0, 24642.150061386834, -4496.701597774219, 16322.89783035491, -3352.2475781735875, 15122.139766471359, 7064.939387433456, -187500.02235174447, -187500.02235174447, -0.196, -0.756, -0.62, 192.0, 249.0, 224.0, 232.0, 96.0, 236.0, 160.0, 0.0, 0.0, 0.0, 1.6776156618649952E9, 0.0, 2023-02-28 12:21:01.864
250.0, 24634.505764783116, -4499.048530942026, 16243.482082305203, -3351.4429153731962, 15082.286606107547, 7010.647000151515, -187500.02235174447, -187500.02235174447, -0.196, -0.756, -0.62, 192.0, 0.0, 0.0, 0.0, 0.0, 0.0, 0.0, 0.0, 0.0, 0.0, 1.6776156618689284E9, 0.0, 2023-02-28 12:21:01.868
251.0, 24625.1627356008, -4499.003827453116, 16065.85276911888, -3350.325328150431, 14991.292654429992, 6942.340069096097, -187500.02235174447, -187500.02235174447, -0.196, -0.756, -0.62, 192.0, 0.0, 0.0, 0.0, 0.0, 0.0, 0.0, 0.0, 0.0, 0.0, 1.6776156618730247E9, 0.0, 2023-02-28 12:21:01.873
252.0, 24645.59223003295, -4497.12628091887, 16121.732130257147, -3352.2699299180426, 15022.361579222868, 6986.618874862061, -187500.02235174447, -187500.02235174447, -0.196, -0.756, -0.62, 192.0, 0.0, 0.0, 0.0, 0.0, 0.0, 0.0, 0.0, 0.0, 0.0, 1.6776156618759615E9, 0.0, 2023-02-28 12:21:01.875
253.0, 24680.326840916496, -4495.941638462739, 16309.151507514896, -3353.454572374174, 15120.195164703748, 7061.117239131599, -187500.02235174447, -187500.02235174447, -0.196, -0.756, -0.62, 192.0, 0.0, 0.0, 0.0, 0.0, 0.0, 0.0, 0.0, 0.0, 0.0, 1.6776156618800528E9, 0.0, 2023-02-28 12:21:01.880
254.0, 24699.638748125883, -4492.320655860979, 16274.88628326491, -3351.6217293288387, 15104.258370907113, 7023.655715424504, -187500.02235174447, -187500.02235174447, -0.196, -0.756, -0.62, 192.0, 0.0, 0.0, 0.0, 0.0, 0.0, 0.0, 0.0, 0.0, 0.0, 1.677615661883987E9, 0.0, 2023-02-28 12:21:01.883
255.0, 24666.088779698468, -4493.237077383647, 16085.119972839353, -3350.124162450333, 15005.061329014461, 6947.905653465468, -187500.02235174447, -187500.02235174447, -0.196, -0.756, -0.62, 192.0, 0.0, 0.0, 0.0, 0.0, 0.0, 0.0, 0.0, 0.0, 0.0, 1.6776156618889828E9, 0.0, 2023-02-28 12:21:01.888
0.0, 24677.488169370674, -4496.209859396203, 16094.239484577118, -3353.2087031851656, 15005.575419136932, 6971.687909565915, -187500.02235174447, -187500.02235174447, -0.196, -0.756, -0.62, 192.0, 0.0, 0.0, 0.0, 0.0, 0.0, 0.0, 0.0, 0.0, 0.0, 1.6776156618929615E9, 0.0, 2023-02-28 12:21:01.892
1.0, 24713.385070965895, -4495.584010551454, 16286.12921072593, -3354.482752619118, 15106.851173263929, 7050.835436682158, -187500.02235174447, -187500.02235174447, -0.196, -0.756, -0.62, 192.0, 0.0, 0.0, 0.0, 0.0, 0.0, 0.0, 0.0, 0.0, 0.0, 1.6776156618970597E9, 0.0, 2023-02-28 12:21:01.897
2.0, 24697.1800562358, -4493.88527797285, 16301.686024866824, -3351.845246773392, 15118.5187838696, 7038.340811531641, -187500.02235174447, -187500.02235174447, -0.196, -0.756, -0.62, 192.0, 0.0, 0.0, 0.0, 0.0, 0.0, 0.0, 0.0, 0.0, 0.0, 1.6776156619010408E9, 0.0, 2023-02-28 12:21:01.901
3.0, 24665.84291050946, -4495.539307062543, 16113.23846736413, -3349.878293261325, 15021.601619911387, 6958.835656504114, -187500.02235174447, -187500.02235174447, -0.196, -0.756, -0.62, 192.0, 0.0, 0.0, 0.0, 0.0, 0.0, 0.0, 0.0, 0.0, 0.0, 1.6776156619040108E9, 0.0, 2023-02-28 12:21:01.904
4.0, 24673.12957920189, -4498.713254775197, 16074.502894223082, -3352.135819451311, 15000.702738845675, 6960.75790652727, -187500.02235174447, -187500.02235174447, -0.198, -0.766, -0.624, 192.0, 249.0, 208.0, 232.0, 16.0, 236.0, 128.0, 0.0, 0.0, 0.0, 1.677615661908006E9, 0.0, 2023-02-28 12:21:01.908
5.0, 24712.245131998676, -4500.903725731817, 16258.54715806808, -3355.7568020530707, 15096.882295236863, 7039.592509221138, -187500.02235174447, -187500.02235174447, -0.198, -0.766, -0.624, 192.0, 0.0, 0.0, 0.0, 0.0, 0.0, 0.0, 0.0, 0.0, 0.0, 1.6776156619120307E9, 0.0, 2023-02-28 12:21:01.912
6.0, 24735.245077043186, -4500.233173398158, 16324.7530251447, -3355.779153797526, 15132.823900320996, 7044.420486023484, -187500.02235174447, -187500.02235174447, -0.198, -0.766, -0.624, 192.0, 0.0, 0.0, 0.0, 0.0, 0.0, 0.0, 0.0, 0.0, 0.0, 1.6776156619170127E9, 0.0, 2023-02-28 12:21:01.917
7.0, 24730.260638029653, -4499.763786764596, 16146.855491024911, -3353.2534066740764, 15045.74150392312, 6961.540217583206, -187500.02235174447, -187500.02235174447, -0.198, -0.766, -0.624, 192.0, 0.0, 0.0, 0.0, 0.0, 0.0, 0.0, 0.0, 0.0, 0.0, 1.6776156619209943E9, 0.0, 2023-02-28 12:21:01.920
8.0, 24743.89520214739, -4500.546097820532, 16059.571928926938, -3353.2310549296208, 15004.189610980704, 6942.56358654065, -187500.02235174447, -187500.02235174447, -0.198, -0.766, -0.624, 192.0, 0.0, 0.0, 0.0, 0.0, 0.0, 0.0, 0.0, 0.0, 0.0, 1.6776156619250395E9, 0.0, 2023-02-28 12:21:01.925
9.0, 24747.627943471427, -4501.775443765574, 16222.024407628109, -3356.1367817088108, 15089.997957944628, 7019.252421766809, -187500.02235174447, -187500.02235174447, -0.198, -0.766, -0.624, 192.0, 0.0, 0.0, 0.0, 0.0, 0.0, 0.0, 0.0, 0.0, 0.0, 1.6776156619290893E9, 0.0, 2023-02-28 12:21:01.929
10.0, 24766.023429158144, -4501.015484454094, 16332.37497000396, -3355.8238572864366, 15148.738342373175, 7047.862654669601, -187500.02235174447, -187500.02235174447, -0.198, -0.766, -0.624, 192.0, 0.0, 0.0, 0.0, 0.0, 0.0, 0.0, 0.0, 0.0, 0.0, 1.6776156619321141E9, 0.0, 2023-02-28 12:21:01.932
11.0, 24753.84172843, -4499.428510597767, 16181.321880974994, -3353.387517140808, 15068.406172800802, 6974.57128460065, -187500.02235174447, -187500.02235174447, -0.198, -0.766, -0.624, 192.0, 0.0, 0.0, 0.0, 0.0, 0.0, 0.0, 0.0, 0.0, 0.0, 1.6776156619359896E9, 0.0, 2023-02-28 12:21:01.935
12.0, 24726.50554496116, -4498.534440819555, 16054.162806768752, -3353.0075374850676, 15003.742576091598, 6937.020353915734, -187500.02235174447, -187500.02235174447, -0.198, -0.766, -0.624, 192.0, 0.0, 0.0, 0.0, 0.0, 0.0, 0.0, 0.0, 0.0, 0.0, 1.677615661940002E9, 0.0, 2023-02-28 12:21:01.940
13.0, 24753.081769118522, -4497.193336152236, 16187.513314189115, -3353.9239590077354, 15075.64813800432, 7006.668389638471, -187500.02235174447, -187500.02235174447, -0.198, -0.766, -0.624, 192.0, 0.0, 0.0, 0.0, 0.0, 0.0, 0.0, 0.0, 0.0, 0.0, 1.6776156619441037E9, 0.0, 2023-02-28 12:21:01.944
14.0, 24789.716278280768, -4494.242905884136, 16337.024132850664, -3352.9628339961573, 15153.09693254196, 7055.4845995288615, -187500.02235174447, -187500.02235174447, -0.2, -0.766, -0.626, 192.0, 249.0, 192.0, 232.0, 16.0, 236.0, 112.0, 0.0, 0.0, 0.0, 1.6776156619490204E9, 0.0, 2023-02-28 12:21:01.949
15.0, 24787.078772435045, -4498.042702441538, 16219.521012249115, -3352.381688640319, 15090.959082956206, 6988.80934581868, -187500.02235174447, -187500.02235174447, -0.2, -0.766, -0.626, 192.0, 0.0, 0.0, 0.0, 0.0, 0.0, 0.0, 0.0, 0.0, 0.0, 1.6776156619530149E9, 0.0, 2023-02-28 12:21:01.953
16.0, 24750.600725483982, -4502.848327499429, 16058.186120770708, -3353.163999696255, 15004.547238891988, 6933.377019569519, -187500.02235174447, -187500.02235174447, -0.2, -0.766, -0.626, 192.0, 0.0, 0.0, 0.0, 0.0, 0.0, 0.0, 0.0, 0.0, 0.0, 1.677615661957028E9, 0.0, 2023-02-28 12:21:01.957
17.0, 24781.960222954778, -4503.742397277641, 16151.795226549535, -3355.153304952777, 15052.536434237532, 6990.038691763722, -187500.02235174447, -187500.02235174447, -0.2, -0.766, -0.626, 192.0, 0.0, 0.0, 0.0, 0.0, 0.0, 0.0, 0.0, 0.0, 0.0, 1.6776156619600673E9, 0.0, 2023-02-28 12:21:01.960
18.0, 24842.533450428662, -4502.289533888046, 16326.138833300929, -3355.9803194976234, 15144.066827782015, 7054.724640217381, -187500.02235174447, -187500.02235174447, -0.2, -0.766, -0.626, 192.0, 0.0, 0.0, 0.0, 0.0, 0.0, 0.0, 0.0, 0.0, 0.0, 1.677615661964076E9, 0.0, 2023-02-28 12:21:01.964
19.0, 24860.794825648645, -4500.926077476272, 16250.142902152886, -3353.2534066740764, 15109.600437831932, 7002.466261680873, -187500.02235174447, -187500.02235174447, -0.2, -0.766, -0.626, 192.0, 0.0, 0.0, 0.0, 0.0, 0.0, 0.0, 0.0, 0.0, 0.0, 1.6776156619680564E9, 0.0, 2023-02-28 12:21:01.968
20.0, 24825.926104298367, -4505.865813000895, 16066.411562730262, -3352.3369851514085, 15015.633704141821, 6931.298307335175, -187500.02235174447, -187500.02235174447, -0.2, -0.766, -0.626, 192.0, 0.0, 0.0, 0.0, 0.0, 0.0, 0.0, 0.0, 0.0, 0.0, 1.6776156619720964E9, 0.0, 2023-02-28 12:21:01.972
21.0, 24799.394583629917, -4507.944525235239, 16115.965380187678, -3355.063897974956, 15038.790111397519, 6968.737479297814, -187500.02235174447, -187500.02235174447, -0.2, -0.766, -0.626, 192.0, 0.0, 0.0, 0.0, 0.0, 0.0, 0.0, 0.0, 0.0, 0.0, 1.6776156619770985E9, 0.0, 2023-02-28 12:21:01.977
22.0, 24830.48586016725, -4508.2574496576135, 16307.18455400283, -3356.740278809104, 15137.562470145522, 7043.593471478638, -187500.02235174447, -187500.02235174447, -0.2, -0.766, -0.626, 192.0, 0.0, 0.0, 0.0, 0.0, 0.0, 0.0, 0.0, 0.0, 0.0, 1.677615661981103E9, 0.0, 2023-02-28 12:21:01.981
23.0, 24838.510136426707, -4505.4411298562445, 16280.138943211907, -3353.9239590077354, 15125.671342095298, 7012.301029241208, -187500.02235174447, -187500.02235174447, -0.2, -0.766, -0.626, 192.0, 0.0, 0.0, 0.0, 0.0, 0.0, 0.0, 0.0, 0.0, 0.0, 1.6776156619850683E9, 0.0, 2023-02-28 12:21:01.985
24.0, 24795.32656613905, -4501.350760620923, 16088.338624040918, -3351.3758601398304, 15028.955343837184, 6933.175853869421, -187500.02235174447, -187500.02235174447, -0.2, -0.76, -0.628, 192.0, 249.0, 192.0, 232.0, 64.0, 236.0, 96.0, 0.0, 0.0, 0.0, 1.6776156619880657E9, 0.0, 2023-02-28 12:21:01.988
25.0, 24807.15063895591, -4502.647161799331, 16089.99265313061, -3353.0075374850676, 15032.68808516122, 6954.342955868597, -187500.02235174447, -187500.02235174447, -0.2, -0.76, -0.628, 192.0, 0.0, 0.0, 0.0, 0.0, 0.0, 0.0, 0.0, 0.0, 0.0, 1.6776156619920864E9, 0.0, 2023-02-28 12:21:01.992
26.0, 24860.370142503994, -4498.154461163815, 16284.296367680594, -3355.2203601861434, 15135.260240466625, 7031.031791094755, -187500.02235174447, -187500.02235174447, -0.2, -0.76, -0.628, 192.0, 0.0, 0.0, 0.0, 0.0, 0.0, 0.0, 0.0, 0.0, 0.0, 1.6776156619961352E9, 0.0, 2023-02-28 12:21:01.996
27.0, 24890.477942285295, -4495.248734384624, 16309.75500461519, -3353.2757584185315, 15147.307830728036, 7023.052218324211, -187500.02235174447, -187500.02235174447, -0.2, -0.76, -0.628, 192.0, 0.0, 0.0, 0.0, 0.0, 0.0, 0.0, 0.0, 0.0, 0.0, 1.6776156620001285E9, 0.0, 2023-02-28 12:21:02.000
28.0, 24905.945349448368, -4500.836670498451, 16119.787528489534, -3353.0075374850676, 15049.02721035805, 6935.254566103765, -187500.02235174447, -187500.02235174447, -0.2, -0.76, -0.628, 192.0, 0.0, 0.0, 0.0, 0.0, 0.0, 0.0, 0.0, 0.0, 0.0, 1.6776156620051367E9, 0.0, 2023-02-28 12:21:02.005
29.0, 24940.769367309735, -4504.100025188926, 16073.050030833487, -3354.125124707833, 15023.63562865682, 6938.4955690497845, -187500.02235174447, -187500.02235174447, -0.2, -0.76, -0.628, 192.0, 0.0, 0.0, 0.0, 0.0, 0.0, 0.0, 0.0, 0.0, 0.0, 1.677615662009276E9, 0.0, 2023-02-28 12:21:02.009
30.0, 24939.27180043123, -4492.812394238996, 16253.49566382118, -3353.3651653963525, 15118.071748980494, 7024.281564269253, -187500.02235174447, -187500.02235174447, -0.2, -0.76, -0.628, 192.0, 0.0, 0.0, 0.0, 0.0, 0.0, 0.0, 0.0, 0.0, 0.0, 1.6776156620131652E9, 0.0, 2023-02-28 12:21:02.013
31.0, 24942.199878954874, -4493.415891339289, 16325.401225733904, -3354.6168630858497, 15159.578938433999, 7027.276698026264, -187500.02235174447, -187500.02235174447, -0.2, -0.76, -0.628, 192.0, 0.0, 0.0, 0.0, 0.0, 0.0, 0.0, 0.0, 0.0, 0.0, 1.6776156620160956E9, 0.0, 2023-02-28 12:21:02.016
32.0, 24992.22308304585, -4502.758920521608, 16151.012915493598, -3354.3709938968414, 15065.880425677351, 6948.017412187745, -187500.02235174447, -187500.02235174447, -0.2, -0.76, -0.628, 192.0, 0.0, 0.0, 0.0, 0.0, 0.0, 0.0, 0.0, 0.0, 0.0, 1.6776156620201533E9, 0.0, 2023-02-28 12:21:02.020
33.0, 24963.143463509496, -4501.820147254485, 16058.02965855952, -3353.8569037743696, 15012.817384340453, 6931.477121290818, -187500.02235174447, -187500.02235174447, -0.2, -0.76, -0.628, 192.0, 0.0, 0.0, 0.0, 0.0, 0.0, 0.0, 0.0, 0.0, 0.0, 1.6776156620261931E9, 0.0, 2023-02-28 12:21:02.026
34.0, 25039.072339424176, -4500.635504798353, 16219.006922126642, -3355.935616008713, 15096.591722558944, 6999.180555245943, -187500.02235174447, -187500.02235174447, -0.2, -0.758, -0.62, 192.0, 249.0, 192.0, 232.0, 80.0, 236.0, 160.0, 0.0, 0.0, 0.0, 1.6776156620291991E9, 0.0, 2023-02-28 12:21:02.029
35.0, 24991.731344667834, -4495.315789617991, 16334.453682238303, -3354.3709938968414, 15165.613909436932, 7024.572136947172, -187500.02235174447, -187500.02235174447, -0.2, -0.758, -0.62, 192.0, 0.0, 0.0, 0.0, 0.0, 0.0, 0.0, 0.0, 0.0, 0.0, 1.6776156620331872E9, 0.0, 2023-02-28 12:21:02.033
36.0, 24940.635256843005, -4493.550001806021, 16182.841799597956, -3350.839418272903, 15090.087364922449, 6956.041688447201, -187500.02235174447, -187500.02235174447, -0.2, -0.758, -0.62, 192.0, 0.0, 0.0, 0.0, 0.0, 0.0, 0.0, 0.0, 0.0, 0.0, 1.6776156620372424E9, 0.0, 2023-02-28 12:21:02.037
37.0, 25019.291045581227, -4491.1807168937585, 16045.713847364646, -3348.872464760836, 15014.761986108064, 6921.508243263751, -187500.02235174447, -187500.02235174447, -0.2, -0.758, -0.62, 192.0, 0.0, 0.0, 0.0, 0.0, 0.0, 0.0, 0.0, 0.0, 0.0, 1.6776156620412688E9, 0.0, 2023-02-28 12:21:02.041
38.0, 25102.193665765964, -4489.79490873753, 16174.102267515931, -3351.0405839730006, 15083.761821241596, 6981.209752703876, -187500.02235174447, -187500.02235174447, -0.2, -0.758, -0.62, 192.0, 0.0, 0.0, 0.0, 0.0, 0.0, 0.0, 0.0, 0.0, 0.0, 1.6776156620442903E9, 0.0, 2023-02-28 12:21:02.044
39.0, 25181.16237892656, -4505.105853689415, 16332.71024617079, -3353.90160726328, 15161.098857056959, 7039.816026665691, -187500.02235174447, -187500.02235174447, -0.2, -0.758, -0.62, 192.0, 0.0, 0.0, 0.0, 0.0, 0.0, 0.0, 0.0, 0.0, 0.0, 1.6776156620482187E9, 0.0, 2023-02-28 12:21:02.048
40.0, 25020.118060126075, -4489.102004659415, 16218.604590726447, -3348.0901537049003, 15104.660702307308, 6977.119383468555, -187500.02235174447, -187500.02235174447, -0.2, -0.758, -0.62, 192.0, 0.0, 0.0, 0.0, 0.0, 0.0, 0.0, 0.0, 0.0, 0.0, 1.6776156620521576E9, 0.0, 2023-02-28 12:21:02.052
41.0, 24962.495262920293, -4465.252693325602, 16049.111312521854, -3344.0891914474005, 15020.282866988526, 6909.371246024519, -187500.02235174447, -187500.02235174447, -0.2, -0.758, -0.62, 192.0, 0.0, 0.0, 0.0, 0.0, 0.0, 0.0, 0.0, 0.0, 0.0, 1.6776156620561314E9, 0.0, 2023-02-28 12:21:02.056
42.0, 25124.50070673236, -4464.0009956361055, 16136.350171130916, -3346.302014148476, 15066.193350099726, 6954.879397735524, -187500.02235174447, -187500.02235174447, -0.2, -0.758, -0.62, 192.0, 0.0, 0.0, 0.0, 0.0, 0.0, 0.0, 0.0, 0.0, 0.0, 1.6776156620612078E9, 0.0, 2023-02-28 12:21:02.061
43.0, 25265.71902820099, -4484.855173212907, 16315.857030851488, -3349.610072327861, 15150.928813329794, 7032.998744606823, -187500.02235174447, -187500.02235174447, -0.2, -0.758, -0.62, 192.0, 0.0, 0.0, 0.0, 0.0, 0.0, 0.0, 0.0, 0.0, 0.0, 1.677615662065261E9, 0.0, 2023-02-28 12:21:02.065
44.0, 25278.638336496155, -4492.074786671971, 16244.711428250246, -3348.8277612719253, 15117.781176302575, 6967.910464752968, -187500.02235174447, -187500.02235174447, -0.196, -0.762, -0.628, 192.0, 249.0, 224.0, 232.0, 48.0, 236.0, 96.0, 0.0, 0.0, 0.0, 1.6776156620691938E9, 0.0, 2023-02-28 12:21:02.069
45.0, 25139.25285807286, -4496.4110250963, 16058.74491438209, -3349.878293261325, 15009.822250583442, 6896.921324362913, -187500.02235174447, -187500.02235174447, -0.196, -0.762, -0.628, 192.0, 0.0, 0.0, 0.0, 0.0, 0.0, 0.0, 0.0, 0.0, 0.0, 1.677615662072212E9, 0.0, 2023-02-28 12:21:02.072
46.0, 25240.863888366686, -4492.03008318306, 16101.168525358264, -3353.0522409739783, 15021.623971655843, 6935.99217367079, -187500.02235174447, -187500.02235174447, -0.196, -0.762, -0.628, 192.0, 0.0, 0.0, 0.0, 0.0, 0.0, 0.0, 0.0, 0.0, 0.0, 1.6776156620762746E9, 0.0, 2023-02-28 12:21:02.076
47.0, 25194.238149432917, -4484.519897046077, 16291.918312539854, -3351.9793572401236, 15125.492528139655, 7012.323380985664, -187500.02235174447, -187500.02235174447, -0.196, -0.762, -0.628, 192.0, 0.0, 0.0, 0.0, 0.0, 0.0, 0.0, 0.0, 0.0, 0.0, 1.677615662080298E9, 0.0, 2023-02-28 12:21:02.080
48.0, 25014.150144356507, -4475.735661475142, 16269.007774473164, -3346.6596420597607, 15111.388577388356, 6990.686892352926, -187500.02235174447, -187500.02235174447, -0.196, -0.762, -0.628, 192.0, 0.0, 0.0, 0.0, 0.0, 0.0, 0.0, 0.0, 0.0, 0.0, 1.677615662084301E9, 0.0, 2023-02-28 12:21:02.084
49.0, 25022.062661893688, -4468.448992782712, 16072.982975600122, -3345.8549792593694, 15007.20709648217, 6899.536478464184, -187500.02235174447, -187500.02235174447, -0.196, -0.762, -0.628, 192.0, 0.0, 0.0, 0.0, 0.0, 0.0, 0.0, 0.0, 0.0, 0.0, 1.6776156620882063E9, 0.0, 2023-02-28 12:21:02.088
50.0, 25027.963522429887, -4479.401347565812, 16069.429048231728, -3350.0571072169673, 15005.910695303763, 6907.314885534631, -187500.02235174447, -187500.02235174447, -0.196, -0.762, -0.628, 192.0, 0.0, 0.0, 0.0, 0.0, 0.0, 0.0, 0.0, 0.0, 0.0, 1.6776156620932145E9, 0.0, 2023-02-28 12:21:02.093
51.0, 24940.165870209443, -4471.533533517544, 16261.31877438054, -3351.1076392063665, 15103.319597639991, 6992.966770287368, -187500.02235174447, -187500.02235174447, -0.196, -0.762, -0.628, 192.0, 0.0, 0.0, 0.0, 0.0, 0.0, 0.0, 0.0, 0.0, 0.0, 1.6776156620972257E9, 0.0, 2023-02-28 12:21:02.097
52.0, 24929.16881193743, -4463.173981091259, 16292.253588706684, -3349.5653688389507, 15112.215591933204, 6984.942494027912, -187500.02235174447, -187500.02235174447, -0.196, -0.762, -0.628, 192.0, 0.0, 0.0, 0.0, 0.0, 0.0, 0.0, 0.0, 0.0, 0.0, 1.6776156621012287E9, 0.0, 2023-02-28 12:21:02.101
53.0, 24851.362389488506, -4466.482039270644, 16101.28028408054, -3348.358374638364, 15013.957323307674, 6889.500545203751, -187500.02235174447, -187500.02235174447, -0.196, -0.762, -0.628, 192.0, 0.0, 0.0, 0.0, 0.0, 0.0, 0.0, 0.0, 0.0, 0.0, 1.6776156621052284E9, 0.0, 2023-02-28 12:21:02.105
54.0, 24843.516927184693, -4468.717213716175, 16043.813949085947, -3348.4701333606404, 14972.5842443209, 6905.593801211572, -187500.02235174447, -187500.02235174447, -0.194, -0.758, -0.622, 192.0, 249.0, 240.0, 232.0, 80.0, 236.0, 144.0, 0.0, 0.0, 0.0, 1.6776156621082134E9, 0.0, 2023-02-28 12:21:02.108
55.0, 24848.121386542487, -4462.771649691063, 16225.466576274226, -3351.71113630666, 15061.343021552924, 6984.607217861083, -187500.02235174447, -187500.02235174447, -0.194, -0.758, -0.622, 192.0, 0.0, 0.0, 0.0, 0.0, 0.0, 0.0, 0.0, 0.0, 0.0, 1.6776156621142704E9, 0.0, 2023-02-28 12:21:02.114
56.0, 24706.12075401792, -4460.804696178996, 16305.530524913136, -3352.0464124734895, 15105.51006859661, 6979.421613147451, -187500.02235174447, -187500.02235174447, -0.194, -0.758, -0.622, 192.0, 0.0, 0.0, 0.0, 0.0, 0.0, 0.0, 0.0, 0.0, 0.0, 1.6776156621173291E9, 0.0, 2023-02-28 12:21:02.117
57.0, 24648.654419023325, -4468.046661382516, 16131.343380372928, -3351.286453162009, 15010.78337559502, 6894.864963873025, -187500.02235174447, -187500.02235174447, -0.194, -0.758, -0.622, 192.0, 0.0, 0.0, 0.0, 0.0, 0.0, 0.0, 0.0, 0.0, 0.0, 1.6776156621223106E9, 0.0, 2023-02-28 12:21:02.122
58.0, 24660.79141626256, -4470.17007710577, 16029.352370423363, -3351.554674095473, 14951.618308021822, 6884.426699212397, -187500.02235174447, -187500.02235174447, -0.194, -0.758, -0.622, 192.0, 0.0, 0.0, 0.0, 0.0, 0.0, 0.0, 0.0, 0.0, 0.0, 1.6776156621252851E9, 0.0, 2023-02-28 12:21:02.125
59.0, 24587.075363048956, -4465.78913519253, 16187.803886867034, -3352.381688640319, 15030.45291071569, 6956.1087436805665, -187500.02235174447, -187500.02235174447, -0.194, -0.758, -0.622, 192.0, 0.0, 0.0, 0.0, 0.0, 0.0, 0.0, 0.0, 0.0, 0.0, 1.6776156621293828E9, 0.0, 2023-02-28 12:21:02.129
60.0, 24352.113825334767, -4452.221626308158, 16310.604370904492, -3351.0405839730006, 15102.64904530633, 6987.378834173541, -187500.02235174447, -187500.02235174447, -0.194, -0.758, -0.622, 192.0, 0.0, 0.0, 0.0, 0.0, 0.0, 0.0, 0.0, 0.0, 0.0, 1.6776156621323316E9, 0.0, 2023-02-28 12:21:02.132
61.0, 24379.695877992617, -4446.5666349609655, 16163.418133666293, -3348.224264171632, 15031.302277004992, 6912.3216762926195, -187500.02235174447, -187500.02235174447, -0.194, -0.758, -0.622, 192.0, 0.0, 0.0, 0.0, 0.0, 0.0, 0.0, 0.0, 0.0, 0.0, 1.6776156621362824E9, 0.0, 2023-02-28 12:21:02.136
62.0, 24337.652246672184, -4451.215797807669, 16021.328094163908, -3349.4759618611292, 14956.53569180199, 6864.265425713709, -187500.02235174447, -187500.02235174447, -0.194, -0.758, -0.622, 192.0, 0.0, 0.0, 0.0, 0.0, 0.0, 0.0, 0.0, 0.0, 0.0, 1.677615662140358E9, 0.0, 2023-02-28 12:21:02.140
63.0, 24224.105384839226, -4442.833893636929, 16144.732075301657, -3348.939519994202, 15016.25955298657, 6939.121417894533, -187500.02235174447, -187500.02235174447, -0.194, -0.758, -0.622, 192.0, 0.0, 0.0, 0.0, 0.0, 0.0, 0.0, 0.0, 0.0, 0.0, 1.6776156621443903E9, 0.0, 2023-02-28 12:21:02.144
64.0, 24157.273668917856, -4424.214890505658, 16302.55774290058, -3346.592586826395, 15102.023196461583, 6996.788918589225, -187500.02235174447, -187500.02235174447, -0.202, -0.764, -0.626, 192.0, 249.0, 176.0, 232.0, 32.0, 236.0, 112.0, 0.0, 0.0, 0.0, 1.6776156621493733E9, 0.0, 2023-02-28 12:21:02.149
65.0, 24156.96074449548, -4424.460759694667, 16196.096384059952, -3346.905511248769, 15047.842567901918, 6924.7045427208595, -187500.02235174447, -187500.02235174447, -0.202, -0.764, -0.626, 192.0, 0.0, 0.0, 0.0, 0.0, 0.0, 0.0, 0.0, 0.0, 0.0, 1.677615662152404E9, 0.0, 2023-02-28 12:21:02.152
66.0, 24076.96385108994, -4431.121579542349, 16025.709036077147, -3347.1066769488666, 14956.803912735453, 6860.823257067592, -187500.02235174447, -187500.02235174447, -0.202, -0.764, -0.626, 192.0, 0.0, 0.0, 0.0, 0.0, 0.0, 0.0, 0.0, 0.0, 0.0, 1.6776156621563935E9, 0.0, 2023-02-28 12:21:02.156
67.0, 24027.588847588166, -4432.373277231846, 16107.963455672678, -3348.5371885940062, 14995.204209709671, 6924.101045620567, -187500.02235174447, -187500.02235174447, -0.202, -0.764, -0.626, 192.0, 0.0, 0.0, 0.0, 0.0, 0.0, 0.0, 0.0, 0.0, 0.0, 1.6776156621603625E9, 0.0, 2023-02-28 12:21:02.160
68.0, 23976.760980696796, -4419.878652081329, 16292.007719517676, -3348.1125054493555, 15092.27783587907, 6983.735499827326, -187500.02235174447, -187500.02235174447, -0.202, -0.764, -0.626, 192.0, 0.0, 0.0, 0.0, 0.0, 0.0, 0.0, 0.0, 0.0, 0.0, 1.6776156621642995E9, 0.0, 2023-02-28 12:21:02.164
69.0, 23858.788473461685, -4414.82715783443, 16227.902916419855, -3344.9162059922464, 15062.035925631038, 6928.057304389156, -187500.02235174447, -187500.02235174447, -0.202, -0.764, -0.626, 192.0, 0.0, 0.0, 0.0, 0.0, 0.0, 0.0, 0.0, 0.0, 0.0, 1.6776156621683235E9, 0.0, 2023-02-28 12:21:02.168
70.0, 23812.274493250192, -4416.503538668578, 16037.108425749353, -3343.351583880375, 14960.044915681472, 6849.580329606572, -187500.02235174447, -187500.02235174447, -0.202, -0.764, -0.626, 192.0, 0.0, 0.0, 0.0, 0.0, 0.0, 0.0, 0.0, 0.0, 0.0, 1.6776156621723342E9, 0.0, 2023-02-28 12:21:02.172
71.0, 23740.212469126283, -4410.557974643466, 16075.911054123766, -3345.363240881353, 14980.116782202338, 6877.095327031056, -187500.02235174447, -187500.02235174447, -0.202, -0.764, -0.626, 192.0, 0.0, 0.0, 0.0, 0.0, 0.0, 0.0, 0.0, 0.0, 0.0, 1.6776156621783445E9, 0.0, 2023-02-28 12:21:02.178
72.0, 23627.336159626982, -4406.288791452503, 16272.472294863737, -3346.346717637386, 15084.03004217506, 6958.589787315105, -187500.02235174447, -187500.02235174447, -0.202, -0.764, -0.626, 192.0, 0.0, 0.0, 0.0, 0.0, 0.0, 0.0, 0.0, 0.0, 0.0, 1.6776156621813543E9, 0.0, 2023-02-28 12:21:02.181
73.0, 23477.512416543057, -4399.225640204625, 16259.307117379562, -3342.61397631335, 15077.950367683217, 6936.998002171279, -187500.02235174447, -187500.02235174447, -0.202, -0.764, -0.626, 192.0, 0.0, 0.0, 0.0, 0.0, 0.0, 0.0, 0.0, 0.0, 0.0, 1.6776156621853004E9, 0.0, 2023-02-28 12:21:02.185
74.0, 23427.042177562977, -4398.711550082154, 16060.913033594255, -3340.6246710568275, 14971.511360587045, 6861.270291956698, -187500.02235174447, -187500.02235174447, -0.194, -0.766, -0.62, 192.0, 249.0, 240.0, 232.0, 16.0, 236.0, 160.0, 0.0, 0.0, 0.0, 1.677615662188321E9, 0.0, 2023-02-28 12:21:02.188
75.0, 23359.04817092993, -4401.997256517084, 16048.977202055123, -3343.4409908581965, 14964.381154105802, 6875.038966541168, -187500.02235174447, -187500.02235174447, -0.194, -0.766, -0.62, 192.0, 0.0, 0.0, 0.0, 0.0, 0.0, 0.0, 0.0, 0.0, 0.0, 1.677615662192442E9, 0.0, 2023-02-28 12:21:02.192
76.0, 23386.518464865505, -4403.20425071767, 16247.103064906963, -3347.061973459956, 15065.36633555488, 6950.364345355552, -187500.02235174447, -187500.02235174447, -0.194, -0.766, -0.62, 192.0, 0.0, 0.0, 0.0, 0.0, 0.0, 0.0, 0.0, 0.0, 0.0, 1.6776156621963816E9, 0.0, 2023-02-28 12:21:02.196
77.0, 23379.477665362083, -4406.802881574975, 16287.067983993053, -3347.218435671143, 15085.192332886736, 6942.51888305174, -187500.02235174447, -187500.02235174447, -0.194, -0.766, -0.62, 192.0, 0.0, 0.0, 0.0, 0.0, 0.0, 0.0, 0.0, 0.0, 0.0, 1.6776156622003472E9, 0.0, 2023-02-28 12:21:02.200
78.0, 23271.295222198394, -4402.4889948951, 16095.200609588697, -3343.9550809806683, 14982.083735714405, 6863.639576868961, -187500.02235174447, -187500.02235174447, -0.194, -0.766, -0.62, 192.0, 0.0, 0.0, 0.0, 0.0, 0.0, 0.0, 0.0, 0.0, 0.0, 1.677615662205322E9, 0.0, 2023-02-28 12:21:02.205
79.0, 23225.004759431453, -4400.2538204495695, 16033.308629191952, -3345.296185647987, 14946.097427141362, 6856.397611665441, -187500.02235174447, -187500.02235174447, -0.194, -0.766, -0.62, 192.0, 0.0, 0.0, 0.0, 0.0, 0.0, 0.0, 0.0, 0.0, 0.0, 1.677615662208347E9, 0.0, 2023-02-28 12:21:02.208
80.0, 23224.378910586707, -4397.884535537307, 16216.436471514282, -3347.7548775380706, 15042.701666677198, 6933.0864468916, -187500.02235174447, -187500.02235174447, -0.194, -0.766, -0.62, 192.0, 0.0, 0.0, 0.0, 0.0, 0.0, 0.0, 0.0, 0.0, 0.0, 1.6776156622123444E9, 0.0, 2023-02-28 12:21:02.212
81.0, 23137.587086866748, -4396.409320403257, 16303.94355105681, -3344.7597437810596, 15089.685033522253, 6954.767639013248, -187500.02235174447, -187500.02235174447, -0.194, -0.766, -0.62, 192.0, 0.0, 0.0, 0.0, 0.0, 0.0, 0.0, 0.0, 0.0, 0.0, 1.6776156622163436E9, 0.0, 2023-02-28 12:21:02.216
82.0, 23063.736923186414, -4384.898172008774, 16129.085854182942, -3338.545958822484, 15000.121593489837, 6880.246922999254, -187500.02235174447, -187500.02235174447, -0.194, -0.766, -0.62, 192.0, 0.0, 0.0, 0.0, 0.0, 0.0, 0.0, 0.0, 0.0, 0.0, 1.6776156622204425E9, 0.0, 2023-02-28 12:21:02.220
83.0, 23056.56201321626, -4377.633855060799, 16021.372797652817, -3337.4060198552634, 14944.219880607116, 6851.122599973989, -187500.02235174447, -187500.02235174447, -0.194, -0.766, -0.62, 192.0, 0.0, 0.0, 0.0, 0.0, 0.0, 0.0, 0.0, 0.0, 0.0, 1.6776156622243283E9, 0.0, 2023-02-28 12:21:02.224
84.0, 23124.53366810485, -4378.304407394458, 16178.840837340456, -3339.998822212079, 15025.155547279783, 6922.804644442159, -187500.02235174447, -187500.02235174447, -0.188, -0.766, -0.626, 192.0, 250.0, 32.0, 232.0, 16.0, 236.0, 112.0, 0.0, 0.0, 0.0, 1.6776156622284036E9, 0.0, 2023-02-28 12:21:02.228
85.0, 23144.29261020334, -4379.086718450394, 16310.716129626768, -3339.6188425563387, 15090.89202772284, 6977.18643870192, -187500.02235174447, -187500.02235174447, -0.188, -0.766, -0.626, 192.0, 0.0, 0.0, 0.0, 0.0, 0.0, 0.0, 0.0, 0.0, 0.0, 1.6776156622334764E9, 0.0, 2023-02-28 12:21:02.233
86.0, 23072.498807012893, -4372.448250347167, 16166.927357545777, -3336.4672465881404, 15017.220677998148, 6907.516051234728, -187500.02235174447, -187500.02235174447, -0.188, -0.766, -0.626, 192.0, 0.0, 0.0, 0.0, 0.0, 0.0, 0.0, 0.0, 0.0, 0.0, 1.67761566223638E9, 0.0, 2023-02-28 12:21:02.236
87.0, 23050.571745702237, -4368.804916000952, 16018.757643551548, -3335.4614180876515, 14942.834072450885, 6862.924321046391, -187500.02235174447, -187500.02235174447, -0.188, -0.766, -0.626, 192.0, 0.0, 0.0, 0.0, 0.0, 0.0, 0.0, 0.0, 0.0, 0.0, 1.6776156622393832E9, 0.0, 2023-02-28 12:21:02.239
88.0, 23077.7961704488, -4363.5299043095, 16138.652400809813, -3337.428371599719, 15006.15656449277, 6928.750208467271, -187500.02235174447, -187500.02235174447, -0.188, -0.766, -0.626, 192.0, 0.0, 0.0, 0.0, 0.0, 0.0, 0.0, 0.0, 0.0, 0.0, 1.6776156622443624E9, 0.0, 2023-02-28 12:21:02.244
89.0, 23112.70959528799, -4360.870046719318, 16305.999911546698, -3337.0483919439785, 15095.831763247463, 6984.2272382053425, -187500.02235174447, -187500.02235174447, -0.188, -0.766, -0.626, 192.0, 0.0, 0.0, 0.0, 0.0, 0.0, 0.0, 0.0, 0.0, 0.0, 1.6776156622484303E9, 0.0, 2023-02-28 12:21:02.248
90.0, 23134.413139154094, -4364.222808387614, 16200.96906435121, -3334.522644820529, 15045.02624810055, 6923.184624097899, -187500.02235174447, -187500.02235174447, -0.188, -0.766, -0.626, 192.0, 0.0, 0.0, 0.0, 0.0, 0.0, 0.0, 0.0, 0.0, 0.0, 1.6776156622523515E9, 0.0, 2023-02-28 12:21:02.252
91.0, 23105.422926595562, -4362.345261853368, 16024.367931409828, -3333.3827058533084, 14956.20041563516, 6859.057469255623, -187500.02235174447, -187500.02235174447, -0.188, -0.766, -0.626, 192.0, 0.0, 0.0, 0.0, 0.0, 0.0, 0.0, 0.0, 0.0, 0.0, 1.6776156622563682E9, 0.0, 2023-02-28 12:21:02.256
92.0, 23162.621040656693, -4358.791334484975, 16104.387176559829, -3335.7519907655706, 15000.881552801318, 6910.354722780553, -187500.02235174447, -187500.02235174447, -0.188, -0.766, -0.626, 192.0, 0.0, 0.0, 0.0, 0.0, 0.0, 0.0, 0.0, 0.0, 0.0, 1.677615662260442E9, 0.0, 2023-02-28 12:21:02.260
93.0, 23177.55200595284, -4358.1654856402265, 16293.237065462718, -3336.3554878658642, 15104.034853462561, 6984.875438794546, -187500.02235174447, -187500.02235174447, -0.188, -0.766, -0.626, 192.0, 0.0, 0.0, 0.0, 0.0, 0.0, 0.0, 0.0, 0.0, 0.0, 1.6776156622643995E9, 0.0, 2023-02-28 12:21:02.264
94.0, 23158.15069176563, -4355.036241416484, 16235.413102556839, -3332.868615730836, 15079.60439677291, 6940.2613568617535, -187500.02235174447, -187500.02235174447, -0.184, -0.76, -0.62, 192.0, 250.0, 64.0, 232.0, 64.0, 236.0, 160.0, 0.0, 0.0, 0.0, 1.6776156622674003E9, 0.0, 2023-02-28 12:21:02.267
95.0, 23135.62013335468, -4355.036241416484, 16040.260021717551, -3331.7286767636156, 14979.379174635313, 6861.046774512145, -187500.02235174447, -187500.02235174447, -0.184, -0.76, -0.62, 192.0, 0.0, 0.0, 0.0, 0.0, 0.0, 0.0, 0.0, 0.0, 0.0, 1.6776156622725587E9, 0.0, 2023-02-28 12:21:02.272
96.0, 23187.38677351317, -4361.093564163872, 16071.664222677258, -3334.924976220724, 14994.44425039819, 6899.737644164282, -187500.02235174447, -187500.02235174447, -0.184, -0.76, -0.62, 192.0, 0.0, 0.0, 0.0, 0.0, 0.0, 0.0, 0.0, 0.0, 0.0, 1.677615662276497E9, 0.0, 2023-02-28 12:21:02.276
97.0, 23243.914335240643, -4361.33943335288, 16270.55004484058, -3336.8919297327916, 15100.860905749907, 6983.71314808287, -187500.02235174447, -187500.02235174447, -0.184, -0.76, -0.62, 192.0, 0.0, 0.0, 0.0, 0.0, 0.0, 0.0, 0.0, 0.0, 0.0, 1.67761566228058E9, 0.0, 2023-02-28 12:21:02.280
98.0, 23239.39928286067, -4357.740802495576, 16263.531597081614, -3334.522644820529, 15102.17965867277, 6958.969766970846, -187500.02235174447, -187500.02235174447, -0.184, -0.76, -0.62, 192.0, 0.0, 0.0, 0.0, 0.0, 0.0, 0.0, 0.0, 0.0, 0.0, 1.6776156622845013E9, 0.0, 2023-02-28 12:21:02.284
99.0, 23223.663654764136, -4358.791334484975, 16064.444609218195, -3332.6003947973722, 15000.032186512017, 6874.144896762955, -187500.02235174447, -187500.02235174447, -0.184, -0.76, -0.62, 192.0, 0.0, 0.0, 0.0, 0.0, 0.0, 0.0, 0.0, 0.0, 0.0, 1.6776156622884157E9, 0.0, 2023-02-28 12:21:02.288
100.0, 23265.528472128924, -4356.62321527281, 16042.249326974075, -3332.287470374998, 14990.219770696136, 6885.924266090902, -187500.02235174447, -187500.02235174447, -0.184, -0.76, -0.62, 192.0, 0.0, 0.0, 0.0, 0.0, 0.0, 0.0, 0.0, 0.0, 0.0, 1.6776156622914016E9, 0.0, 2023-02-28 12:21:02.291
101.0, 23337.366978808284, -4358.1654856402265, 16238.07296014702, -3334.2767756315206, 15091.517876567588, 6979.734537569826, -187500.02235174447, -187500.02235174447, -0.184, -0.76, -0.62, 192.0, 0.0, 0.0, 0.0, 0.0, 0.0, 0.0, 0.0, 0.0, 0.0, 1.6776156622954695E9, 0.0, 2023-02-28 12:21:02.295
102.0, 23373.263880403505, -4364.848657232364, 16287.179742715329, -3335.7519907655706, 15112.930847755773, 6979.6451305920045, -187500.02235174447, -187500.02235174447, -0.184, -0.76, -0.62, 192.0, 0.0, 0.0, 0.0, 0.0, 0.0, 0.0, 0.0, 0.0, 0.0, 1.677615662300442E9, 0.0, 2023-02-28 12:21:02.300
103.0, 23363.496168076537, -4368.760212512042, 16098.128688112341, -3334.835569242903, 15013.35382620738, 6895.066129573122, -187500.02235174447, -187500.02235174447, -0.184, -0.76, -0.62, 192.0, 0.0, 0.0, 0.0, 0.0, 0.0, 0.0, 0.0, 0.0, 0.0, 1.677615662304505E9, 0.0, 2023-02-28 12:21:02.304
104.0, 23383.67979331968, -4368.693157278676, 16028.45830064515, -3335.215548898643, 14975.44526761118, 6888.338254492075, -187500.02235174447, -187500.02235174447, -0.192, -0.766, -0.628, 192.0, 250.0, 0.0, 232.0, 16.0, 236.0, 96.0, 0.0, 0.0, 0.0, 1.6776156623084276E9, 0.0, 2023-02-28 12:21:02.308
105.0, 23453.998381376074, -4372.180029413704, 16208.948637121755, -3338.7247727781264, 15068.160303611792, 6972.738441555315, -187500.02235174447, -187500.02235174447, -0.192, -0.766, -0.628, 192.0, 0.0, 0.0, 0.0, 0.0, 0.0, 0.0, 0.0, 0.0, 0.0, 1.67761566231256E9, 0.0, 2023-02-28 12:21:02.312
106.0, 23516.136230961827, -4373.498782336567, 16304.167068501363, -3337.6071855553614, 15119.166984458803, 6993.3243981986525, -187500.02235174447, -187500.02235174447, -0.192, -0.766, -0.628, 192.0, 0.0, 0.0, 0.0, 0.0, 0.0, 0.0, 0.0, 0.0, 0.0, 1.67761566231647E9, 0.0, 2023-02-28 12:21:02.316
107.0, 23514.683367572234, -4374.146982925771, 16132.483319340148, -3334.388534353797, 15035.59381194041, 6909.058321602145, -187500.02235174447, -187500.02235174447, -0.192, -0.766, -0.628, 192.0, 0.0, 0.0, 0.0, 0.0, 0.0, 0.0, 0.0, 0.0, 0.0, 1.677615662319527E9, 0.0, 2023-02-28 12:21:02.319
108.0, 23530.08371950194, -4375.108107937349, 16017.707111562147, -3334.3661826093416, 14973.902997243762, 6879.755184621237, -187500.02235174447, -187500.02235174447, -0.192, -0.766, -0.628, 192.0, 0.0, 0.0, 0.0, 0.0, 0.0, 0.0, 0.0, 0.0, 0.0, 1.677615662323454E9, 0.0, 2023-02-28 12:21:02.323
109.0, 23599.932920924773, -4372.805878258452, 16170.77185759209, -3336.154322165766, 15053.430504015745, 6958.858008248569, -187500.02235174447, -187500.02235174447, -0.192, -0.766, -0.628, 192.0, 0.0, 0.0, 0.0, 0.0, 0.0, 0.0, 0.0, 0.0, 0.0, 1.6776156623285708E9, 0.0, 2023-02-28 12:21:02.328
110.0, 23642.736511556686, -4374.884590492796, 16308.838583092522, -3336.3107843769535, 15125.89485953985, 7001.996875047312, -187500.02235174447, -187500.02235174447, -0.192, -0.766, -0.628, 192.0, 0.0, 0.0, 0.0, 0.0, 0.0, 0.0, 0.0, 0.0, 0.0, 1.6776156623324783E9, 0.0, 2023-02-28 12:21:02.332
111.0, 23654.87350879592, -4376.203343415659, 16168.313165702006, -3332.9803744531127, 15056.135065094837, 6930.001906156767, -187500.02235174447, -187500.02235174447, -0.192, -0.766, -0.628, 192.0, 0.0, 0.0, 0.0, 0.0, 0.0, 0.0, 0.0, 0.0, 0.0, 1.6776156623364663E9, 0.0, 2023-02-28 12:21:02.336
112.0, 23705.433154753824, -4380.271360906525, 16012.700320804159, -3332.6898017751937, 14976.87577925632, 6881.051585799645, -187500.02235174447, -187500.02235174447, -0.192, -0.766, -0.628, 192.0, 0.0, 0.0, 0.0, 0.0, 0.0, 0.0, 0.0, 0.0, 0.0, 1.6776156623404448E9, 0.0, 2023-02-28 12:21:02.340
113.0, 23773.337754409047, -4382.931218496707, 16128.19178440473, -3334.61205179835, 15035.705570662687, 6947.078638920622, -187500.02235174447, -187500.02235174447, -0.192, -0.766, -0.628, 192.0, 0.0, 0.0, 0.0, 0.0, 0.0, 0.0, 0.0, 0.0, 0.0, 1.6776156623434677E9, 0.0, 2023-02-28 12:21:02.343
114.0, 23835.944990628363, -4381.321892895924, 16297.103917253486, -3334.4108860982524, 15126.498356640144, 7007.964790816879, -187500.02235174447, -187500.02235174447, -0.20400000000000001, -0.772, -0.632, 192.0, 249.0, 160.0, 231.0, 224.0, 236.0, 64.0, 0.0, 0.0, 0.0, 1.6776156623475752E9, 0.0, 2023-02-28 12:21:02.347
115.0, 23878.72622951582, -4381.456003362657, 16196.990453838165, -3331.7286767636156, 15080.856094462408, 6950.7666767557475, -187500.02235174447, -187500.02235174447, -0.20400000000000001, -0.772, -0.632, 192.0, 0.0, 0.0, 0.0, 0.0, 0.0, 0.0, 0.0, 0.0, 0.0, 1.6776156623515508E9, 0.0, 2023-02-28 12:21:02.351
116.0, 23910.130430475525, -4383.422956874723, 16014.287294660486, -3330.7675517520374, 14990.286825929503, 6881.856248600036, -187500.02235174447, -187500.02235174447, -0.20400000000000001, -0.772, -0.632, 192.0, 0.0, 0.0, 0.0, 0.0, 0.0, 0.0, 0.0, 0.0, 0.0, 1.677615662355537E9, 0.0, 2023-02-28 12:21:02.355
117.0, 23940.59585816811, -4384.518192353034, 16087.377499029339, -3332.4439325861854, 15026.83192811393, 6929.443112545385, -187500.02235174447, -187500.02235174447, -0.20400000000000001, -0.772, -0.632, 192.0, 0.0, 0.0, 0.0, 0.0, 0.0, 0.0, 0.0, 0.0, 0.0, 1.6776156623605113E9, 0.0, 2023-02-28 12:21:02.360
118.0, 23976.02337312977, -4384.540544097489, 16281.480047879226, -3333.89679597578, 15127.682999096276, 7006.1766512604545, -187500.02235174447, -187500.02235174447, -0.20400000000000001, -0.772, -0.632, 192.0, 0.0, 0.0, 0.0, 0.0, 0.0, 0.0, 0.0, 0.0, 0.0, 1.677615662364564E9, 0.0, 2023-02-28 12:21:02.364
119.0, 23995.80466697272, -4383.557067341455, 16231.054512388053, -3330.5663860519394, 15103.476059851178, 6967.374022886041, -187500.02235174447, -187500.02235174447, -0.20400000000000001, -0.772, -0.632, 192.0, 0.0, 0.0, 0.0, 0.0, 0.0, 0.0, 0.0, 0.0, 0.0, 1.6776156623685997E9, 0.0, 2023-02-28 12:21:02.368
120.0, 23986.30517557921, -4384.004102230561, 16031.475786146617, -3327.5265488060177, 15000.702738845675, 6887.0195015692125, -187500.02235174447, -187500.02235174447, -0.20400000000000001, -0.772, -0.632, 192.0, 0.0, 0.0, 0.0, 0.0, 0.0, 0.0, 0.0, 0.0, 0.0, 1.6776156623715296E9, 0.0, 2023-02-28 12:21:02.371
121.0, 24020.48099285138, -4385.00993073105, 16053.983992813111, -3328.3088598619534, 15012.526811662534, 6919.787158940692, -187500.02235174447, -187500.02235174447, -0.20400000000000001, -0.772, -0.632, 192.0, 0.0, 0.0, 0.0, 0.0, 0.0, 0.0, 0.0, 0.0, 0.0, 1.6776156623755243E9, 0.0, 2023-02-28 12:21:02.375
122.0, 24097.236883310903, -4381.523058596023, 16254.12151266593, -3328.264156373043, 15121.08923448196, 7006.489575682828, -187500.02235174447, -187500.02235174447, -0.20400000000000001, -0.772, -0.632, 192.0, 0.0, 0.0, 0.0, 0.0, 0.0, 0.0, 0.0, 0.0, 0.0, 1.6776156623795469E9, 0.0, 2023-02-28 12:21:02.379
123.0, 24137.291209374813, -4381.8806865073075, 16256.379038855915, -3327.5936040393835, 15124.464347894711, 6984.026072505245, -187500.02235174447, -187500.02235174447, -0.20400000000000001, -0.772, -0.632, 192.0, 0.0, 0.0, 0.0, 0.0, 0.0, 0.0, 0.0, 0.0, 0.0, 1.6776156623835528E9, 0.0, 2023-02-28 12:21:02.383
124.0, 24114.134802119115, -4382.327721396413, 16054.31926897994, -3324.75493249356, 15021.646323400299, 6898.932981363891, -187500.02235174447, -187500.02235174447, -0.20600000000000002, -0.772, -0.628, 192.0, 249.0, 144.0, 231.0, 224.0, 236.0, 96.0, 0.0, 0.0, 0.0, 1.6776156623885863E9, 0.0, 2023-02-28 12:21:02.388
125.0, 24135.01133144037, -4383.668826063732, 16026.893678533279, -3325.1796156382106, 15006.223619726137, 6910.801757669659, -187500.02235174447, -187500.02235174447, -0.20600000000000002, -0.772, -0.628, 192.0, 0.0, 0.0, 0.0, 0.0, 0.0, 0.0, 0.0, 0.0, 0.0, 1.677615662392584E9, 0.0, 2023-02-28 12:21:02.392
126.0, 24194.869303091684, -4383.601770830366, 16221.912648905833, -3326.2972028609756, 15107.141745941848, 6999.851107579602, -187500.02235174447, -187500.02235174447, -0.20600000000000002, -0.772, -0.628, 192.0, 0.0, 0.0, 0.0, 0.0, 0.0, 0.0, 0.0, 0.0, 0.0, 1.6776156623965836E9, 0.0, 2023-02-28 12:21:02.396
127.0, 24193.952881569014, -4382.841811518885, 16274.819228031545, -3325.157263893755, 15135.908441055828, 7000.0746250241555, -187500.02235174447, -187500.02235174447, -0.20600000000000002, -0.772, -0.628, 192.0, 0.0, 0.0, 0.0, 0.0, 0.0, 0.0, 0.0, 0.0, 0.0, 1.6776156623995829E9, 0.0, 2023-02-28 12:21:02.399
128.0, 24167.175491711558, -4383.557067341455, 16085.119972839353, -3322.9891446815905, 15036.756102652087, 6912.880469904002, -187500.02235174447, -187500.02235174447, -0.20600000000000002, -0.772, -0.628, 192.0, 0.0, 0.0, 0.0, 0.0, 0.0, 0.0, 0.0, 0.0, 0.0, 1.6776156624035516E9, 0.0, 2023-02-28 12:21:02.403
129.0, 24190.086029778246, -4385.792241786986, 16007.157088179243, -3323.838510970892, 14996.388852165801, 6899.067091830622, -187500.02235174447, -187500.02235174447, -0.20600000000000002, -0.772, -0.628, 192.0, 0.0, 0.0, 0.0, 0.0, 0.0, 0.0, 0.0, 0.0, 0.0, 1.677615662407621E9, 0.0, 2023-02-28 12:21:02.407
130.0, 24247.46295779502, -4388.429747632712, 16184.205256009729, -3326.319554605431, 15087.382803843357, 6978.393432902508, -187500.02235174447, -187500.02235174447, -0.20600000000000002, -0.772, -0.628, 192.0, 0.0, 0.0, 0.0, 0.0, 0.0, 0.0, 0.0, 0.0, 0.0, 1.67761566241162E9, 0.0, 2023-02-28 12:21:02.411
131.0, 24290.221844938023, -4389.122651710827, 16285.45865839227, -3325.1349121493, 15139.596478890953, 7005.19317450442, -187500.02235174447, -187500.02235174447, -0.20600000000000002, -0.772, -0.628, 192.0, 0.0, 0.0, 0.0, 0.0, 0.0, 0.0, 0.0, 0.0, 0.0, 1.6776156624165351E9, 0.0, 2023-02-28 12:21:02.416
132.0, 24260.672838768107, -4389.323817410925, 16117.194726132719, -3321.7597987365484, 15056.447989517212, 6928.772560211726, -187500.02235174447, -187500.02235174447, -0.20600000000000002, -0.772, -0.628, 192.0, 0.0, 0.0, 0.0, 0.0, 0.0, 0.0, 0.0, 0.0, 0.0, 1.6776156624206E9, 0.0, 2023-02-28 12:21:02.420
133.0, 24237.807004190327, -4392.497765123578, 15994.863628728823, -3322.586813281395, 14991.940855019195, 6891.8921818604695, -187500.02235174447, -187500.02235174447, -0.20600000000000002, -0.772, -0.628, 192.0, 0.0, 0.0, 0.0, 0.0, 0.0, 0.0, 0.0, 0.0, 0.0, 1.6776156624245572E9, 0.0, 2023-02-28 12:21:02.424
134.0, 24265.2772981259, -4398.398625659779, 16144.083874712453, -3326.6548307722605, 15066.372164055369, 6965.3847176295185, -187500.02235174447, -187500.02235174447, -0.21, -0.772, -0.63, 192.0, 249.0, 112.0, 231.0, 224.0, 236.0, 80.0, 0.0, 0.0, 0.0, 1.6776156624276168E9, 0.0, 2023-02-28 12:21:02.427
135.0, 24303.923464289128, -4400.276172194025, 16287.090335737508, -3326.8783482168137, 15140.579955646988, 7009.976447817857, -187500.02235174447, -187500.02235174447, -0.21, -0.772, -0.63, 192.0, 0.0, 0.0, 0.0, 0.0, 0.0, 0.0, 0.0, 0.0, 0.0, 1.6776156624316432E9, 0.0, 2023-02-28 12:21:02.431
136.0, 24286.265586169433, -4400.119709982838, 16152.063447482999, -3324.196138882177, 15071.446010046722, 6936.70742949336, -187500.02235174447, -187500.02235174447, -0.21, -0.772, -0.63, 192.0, 0.0, 0.0, 0.0, 0.0, 0.0, 0.0, 0.0, 0.0, 0.0, 1.6776156624355812E9, 0.0, 2023-02-28 12:21:02.435
137.0, 24254.79432997636, -4404.992390274095, 15992.851971727845, -3324.3526010933642, 14986.129401460816, 6885.812507368625, -187500.02235174447, -187500.02235174447, -0.21, -0.772, -0.63, 192.0, 0.0, 0.0, 0.0, 0.0, 0.0, 0.0, 0.0, 0.0, 0.0, 1.6776156624395852E9, 0.0, 2023-02-28 12:21:02.439
138.0, 24289.2830716709, -4407.696951353187, 16103.358996314884, -3327.124217405822, 15039.661829431276, 6951.258415133765, -187500.02235174447, -187500.02235174447, -0.21, -0.772, -0.63, 192.0, 0.0, 0.0, 0.0, 0.0, 0.0, 0.0, 0.0, 0.0, 0.0, 1.67761566244462E9, 0.0, 2023-02-28 12:21:02.444
139.0, 24325.85052559978, -4411.58615488841, 16279.736611811712, -3328.6664877732383, 15128.733531085674, 7014.089168797633, -187500.02235174447, -187500.02235174447, -0.21, -0.772, -0.63, 192.0, 0.0, 0.0, 0.0, 0.0, 0.0, 0.0, 0.0, 0.0, 0.0, 1.6776156624486198E9, 0.0, 2023-02-28 12:21:02.448
140.0, 24300.213074709543, -4418.336381713913, 16185.814581610512, -3326.9230517057244, 15080.967853184684, 6954.253548890776, -187500.02235174447, -187500.02235174447, -0.21, -0.772, -0.63, 192.0, 0.0, 0.0, 0.0, 0.0, 0.0, 0.0, 0.0, 0.0, 0.0, 1.677615662452624E9, 0.0, 2023-02-28 12:21:02.452
141.0, 24274.396809863665, -4421.756198615575, 16000.138640420277, -3326.319554605431, 14984.922407260228, 6882.50444918924, -187500.02235174447, -187500.02235174447, -0.21, -0.772, -0.63, 192.0, 0.0, 0.0, 0.0, 0.0, 0.0, 0.0, 0.0, 0.0, 0.0, 1.677615662455662E9, 0.0, 2023-02-28 12:21:02.455
142.0, 24317.826249340327, -4417.285849724513, 16065.875120863335, -3327.034810428001, 15017.891230331807, 6930.560699768151, -187500.02235174447, -187500.02235174447, -0.21, -0.772, -0.63, 192.0, 0.0, 0.0, 0.0, 0.0, 0.0, 0.0, 0.0, 0.0, 0.0, 1.677615662459633E9, 0.0, 2023-02-28 12:21:02.459
143.0, 24365.793092941418, -4415.475358423634, 16261.810512758555, -3327.5936040393835, 15118.295266425046, 7008.881212339546, -187500.02235174447, -187500.02235174447, -0.21, -0.772, -0.63, 192.0, 0.0, 0.0, 0.0, 0.0, 0.0, 0.0, 0.0, 0.0, 0.0, 1.6776156624637191E9, 0.0, 2023-02-28 12:21:02.463
