%OpenBCI Raw EEG Data
%Number of channels = 8
%Sample Rate = 250 Hz
%Board = OpenBCI_GUI$BoardCytonSerial
Sample Index, EXG Channel 0, EXG Channel 1, EXG Channel 2, EXG Channel 3, EXG Channel 4, EXG Channel 5, EXG Channel 6, EXG Channel 7, Accel Channel 0, Accel Channel 1, Accel Channel 2, Other, Other, Other, Other, Other, Other, Other, Analog Channel 0, Analog Channel 1, Analog Channel 2, Timestamp, Other, Timestamp (Formatted)
40.0, 27395.75086781393, -4363.775773498509, 15645.751732081382, -3289.3721210208087, 14944.845729451863, 7323.906698692644, -187500.02235174447, -187500.02235174447, 0.0, 0.0, 0.0, 192.0, 0.0, 0.0, 0.0, 0.0, 0.0, 0.0, 0.0, 0.0, 0.0, 1.6776154730268888E9, 0.0, 2023-02-28 12:17:53.026
41.0, 27486.476598558023, -4364.982767699095, 16294.041728263108, -3292.0096268665347, 15279.78662011464, 7554.241425304584, -187500.02235174447, -187500.02235174447, 0.0, 0.0, 0.0, 192.0, 0.0, 0.0, 0.0, 0.0, 0.0, 0.0, 0.0, 0.0, 0.0, 1.6776154730269136E9, 0.0, 2023-02-28 12:17:53.026
42.0, 27401.47291439449, -4360.646529274765, 15846.962135668056, -3280.3643680053196, 15060.359544796891, 7282.734785405968, -187500.02235174447, -187500.02235174447, 0.0, 0.0, 0.0, 192.0, 0.0, 0.0, 0.0, 0.0, 0.0, 0.0, 0.0, 0.0, 0.0, 1.6776154730269294E9, 0.0, 2023-02-28 12:17:53.026
0.0, 0.0, 0.0, 0.0, 0.0, 0.0, 0.0, 0.0, 0.0, -0.158, -0.762, -0.62, 192.0, 251.0, 16.0, 232.0, 48.0, 236.0, 160.0, 0.0, 0.0, 0.0, 1.6776154731199381E9, 0.0, 2023-02-28 12:17:53.119
1.0, 26985.953984970332, -4403.114843739849, 15983.196018123153, -3308.3711038078195, 15015.007855297072, 7388.212667490562, -187500.02235174447, -187500.02235174447, -0.158, -0.762, -0.62, 192.0, 0.0, 0.0, 0.0, 0.0, 0.0, 0.0, 0.0, 0.0, 0.0, 1.677615473136946E9, 0.0, 2023-02-28 12:17:53.136
2.0, 26941.585772226546, -4402.511346639556, 15699.619436218672, -3306.3147433179315, 14870.660289604699, 7267.692061387546, -187500.02235174447, -187500.02235174447, -0.158, -0.762, -0.62, 192.0, 0.0, 0.0, 0.0, 0.0, 0.0, 0.0, 0.0, 0.0, 0.0, 1.67761547314104E9, 0.0, 2023-02-28 12:17:53.141
3.0, 26962.372894569984, -4400.030303005016, 15680.44163947602, -3307.097054373867, 14861.339612166836, 7288.210962797519, -187500.02235174447, -187500.02235174447, -0.158, -0.762, -0.62, 192.0, 0.0, 0.0, 0.0, 0.0, 0.0, 0.0, 0.0, 0.0, 0.0, 1.6776154731439564E9, 0.0, 2023-02-28 12:17:53.143
4.0, 26991.519569339704, -4400.29852393848, 15966.231044081575, -3309.4439875416742, 15007.743538349097, 7412.821938135856, -187500.02235174447, -187500.02235174447, -0.158, -0.762, -0.62, 192.0, 0.0, 0.0, 0.0, 0.0, 0.0, 0.0, 0.0, 0.0, 0.0, 1.6776154731479533E9, 0.0, 2023-02-28 12:17:53.147
5.0, 26982.422409346393, -4398.599791359877, 16019.31643716293, -3307.6558479852497, 15037.247841030103, 7406.831670621833, -187500.02235174447, -187500.02235174447, -0.158, -0.762, -0.62, 192.0, 0.0, 0.0, 0.0, 0.0, 0.0, 0.0, 0.0, 0.0, 0.0, 1.6776154731509943E9, 0.0, 2023-02-28 12:17:53.150
6.0, 26935.930780879353, -4395.984637258606, 15740.634887294162, -3304.303086316954, 14892.877923593274, 7283.695910417547, -187500.02235174447, -187500.02235174447, -0.158, -0.762, -0.62, 192.0, 0.0, 0.0, 0.0, 0.0, 0.0, 0.0, 0.0, 0.0, 0.0, 1.6776154731560628E9, 0.0, 2023-02-28 12:17:53.156
7.0, 26926.498344719213, -4394.82234654693, 15650.825578072738, -3304.7277694616046, 14847.190957926627, 7273.145887034641, -187500.02235174447, -187500.02235174447, -0.158, -0.762, -0.62, 192.0, 0.0, 0.0, 0.0, 0.0, 0.0, 0.0, 0.0, 0.0, 0.0, 1.6776154731590035E9, 0.0, 2023-02-28 12:17:53.159
8.0, 26969.23488011776, -4395.761119814053, 15916.788985346437, -3307.611144496339, 14983.804820037463, 7396.102833283286, -187500.02235174447, -187500.02235174447, -0.164, -0.782, -0.606, 192.0, 250.0, 224.0, 231.0, 144.0, 237.0, 16.0, 0.0, 0.0, 0.0, 1.6776154731630273E9, 0.0, 2023-02-28 12:17:53.163
9.0, 26985.01521170321, -4395.045863991483, 16041.377608940318, -3306.5382607624842, 15050.12244583636, 7422.835519651833, -187500.02235174447, -187500.02235174447, -0.164, -0.782, -0.606, 192.0, 0.0, 0.0, 0.0, 0.0, 0.0, 0.0, 0.0, 0.0, 0.0, 1.6776154731671097E9, 0.0, 2023-02-28 12:17:53.167
10.0, 26945.832603673054, -4393.72711106862, 15789.07111752881, -3302.93962990518, 14921.085825095872, 7305.131233350186, -187500.02235174447, -187500.02235174447, -0.164, -0.782, -0.606, 192.0, 0.0, 0.0, 0.0, 0.0, 0.0, 0.0, 0.0, 0.0, 0.0, 1.6776154731710217E9, 0.0, 2023-02-28 12:17:53.171
11.0, 26933.29327503363, -4392.989503501595, 15635.469929631941, -3302.358484549342, 14840.910117734686, 7265.836866597756, -187500.02235174447, -187500.02235174447, -0.164, -0.782, -0.606, 192.0, 0.0, 0.0, 0.0, 0.0, 0.0, 0.0, 0.0, 0.0, 0.0, 1.677615473175067E9, 0.0, 2023-02-28 12:17:53.175
12.0, 26978.890833722453, -4392.810689545952, 15864.463551576562, -3303.878403172303, 14959.530825559, 7380.344853442294, -187500.02235174447, -187500.02235174447, -0.164, -0.782, -0.606, 192.0, 0.0, 0.0, 0.0, 0.0, 0.0, 0.0, 0.0, 0.0, 0.0, 1.6776154731780362E9, 0.0, 2023-02-28 12:17:53.178
13.0, 27003.880084023487, -4394.06238723545, 16052.08409453441, -3304.839528183881, 15057.096190106415, 7433.474950012559, -187500.02235174447, -187500.02235174447, -0.164, -0.782, -0.606, 192.0, 0.0, 0.0, 0.0, 0.0, 0.0, 0.0, 0.0, 0.0, 0.0, 1.6776154731819816E9, 0.0, 2023-02-28 12:17:53.181
14.0, 26961.925859680876, -4396.051692491972, 15843.005876899468, -3303.0513886274566, 14948.220842864615, 7324.778416726401, -187500.02235174447, -187500.02235174447, -0.164, -0.782, -0.606, 192.0, 0.0, 0.0, 0.0, 0.0, 0.0, 0.0, 0.0, 0.0, 0.0, 1.6776154731860273E9, 0.0, 2023-02-28 12:17:53.186
15.0, 26938.300065791616, -4398.622143104332, 15633.771197053338, -3303.1184438608225, 14837.847928744308, 7257.4102589381055, -187500.02235174447, -187500.02235174447, -0.164, -0.782, -0.606, 192.0, 0.0, 0.0, 0.0, 0.0, 0.0, 0.0, 0.0, 0.0, 0.0, 1.6776154731900048E9, 0.0, 2023-02-28 12:17:53.190
16.0, 26977.19210114385, -4401.684332094709, 15811.132289306199, -3306.962943907135, 14925.131490842283, 7355.087382207797, -187500.02235174447, -187500.02235174447, -0.164, -0.782, -0.606, 192.0, 0.0, 0.0, 0.0, 0.0, 0.0, 0.0, 0.0, 0.0, 0.0, 1.6776154731950176E9, 0.0, 2023-02-28 12:17:53.195
17.0, 26997.129857197986, -4401.304352438969, 16048.284297977007, -3307.097054373867, 15048.624878957855, 7438.012354136987, -187500.02235174447, -187500.02235174447, -0.164, -0.782, -0.606, 192.0, 0.0, 0.0, 0.0, 0.0, 0.0, 0.0, 0.0, 0.0, 0.0, 1.677615473199021E9, 0.0, 2023-02-28 12:17:53.199
18.0, 26964.943345182342, -4396.789300058997, 15895.755993813991, -3302.961981649635, 14974.640604810787, 7345.766704769934, -187500.02235174447, -187500.02235174447, -0.17, -0.794, -0.602, 192.0, 250.0, 176.0, 231.0, 48.0, 237.0, 48.0, 0.0, 0.0, 0.0, 1.67761547320302E9, 0.0, 2023-02-28 12:17:53.203
19.0, 26932.063929088585, -4395.023512247028, 15645.662325103562, -3302.313781060431, 14847.347420137814, 7253.185779236052, -187500.02235174447, -187500.02235174447, -0.17, -0.794, -0.602, 192.0, 0.0, 0.0, 0.0, 0.0, 0.0, 0.0, 0.0, 0.0, 0.0, 1.6776154732060938E9, 0.0, 2023-02-28 12:17:53.206
20.0, 26945.229106572762, -4395.448195391678, 15758.181006691577, -3305.6665427287276, 14903.249133020538, 7326.521852793915, -187500.02235174447, -187500.02235174447, -0.17, -0.794, -0.602, 192.0, 0.0, 0.0, 0.0, 0.0, 0.0, 0.0, 0.0, 0.0, 0.0, 1.677615473210049E9, 0.0, 2023-02-28 12:17:53.210
21.0, 26978.48850232226, -4398.912715782251, 16028.681818089703, -3308.549917763462, 15042.746370166109, 7429.518691243969, -187500.02235174447, -187500.02235174447, -0.17, -0.794, -0.602, 192.0, 0.0, 0.0, 0.0, 0.0, 0.0, 0.0, 0.0, 0.0, 0.0, 1.6776154732140944E9, 0.0, 2023-02-28 12:17:53.214
22.0, 26958.260173590206, -4401.147890227782, 15948.170834561686, -3307.186461351688, 14999.898076045285, 7362.284643922406, -187500.02235174447, -187500.02235174447, -0.17, -0.794, -0.602, 192.0, 0.0, 0.0, 0.0, 0.0, 0.0, 0.0, 0.0, 0.0, 0.0, 1.677615473218124E9, 0.0, 2023-02-28 12:17:53.218
23.0, 26919.256379515697, -4401.639628605799, 15673.646709161605, -3305.4653770286295, 14858.970327254574, 7254.839808325745, -187500.02235174447, -187500.02235174447, -0.17, -0.794, -0.602, 192.0, 0.0, 0.0, 0.0, 0.0, 0.0, 0.0, 0.0, 0.0, 0.0, 1.6776154732230482E9, 0.0, 2023-02-28 12:17:53.223
24.0, 26940.177612325864, -4401.170241972237, 15713.63397999215, -3307.521737518518, 14879.578635642367, 7301.554954237337, -187500.02235174447, -187500.02235174447, -0.17, -0.794, -0.602, 192.0, 0.0, 0.0, 0.0, 0.0, 0.0, 0.0, 0.0, 0.0, 0.0, 1.677615473227121E9, 0.0, 2023-02-28 12:17:53.227
25.0, 26989.932595483377, -4401.304352438969, 16000.362157864829, -3309.0863596303893, 15024.97673332414, 7420.577993461847, -187500.02235174447, -187500.02235174447, -0.17, -0.794, -0.602, 192.0, 0.0, 0.0, 0.0, 0.0, 0.0, 0.0, 0.0, 0.0, 0.0, 1.6776154732310913E9, 0.0, 2023-02-28 12:17:53.231
26.0, 26983.897624480443, -4399.985599516106, 15993.142544405764, -3306.4041502957525, 15022.607448411876, 7390.961932058565, -187500.02235174447, -187500.02235174447, -0.17, -0.794, -0.602, 192.0, 0.0, 0.0, 0.0, 0.0, 0.0, 0.0, 0.0, 0.0, 0.0, 1.677615473234128E9, 0.0, 2023-02-28 12:17:53.234
27.0, 26951.107615364508, -4397.9068872817625, 15707.531953755852, -3303.453720027652, 14878.550455397422, 7270.329567233273, -187500.02235174447, -187500.02235174447, -0.17, -0.794, -0.602, 192.0, 0.0, 0.0, 0.0, 0.0, 0.0, 0.0, 0.0, 0.0, 0.0, 1.6776154732381217E9, 0.0, 2023-02-28 12:17:53.238
28.0, 26956.67319973388, -4397.951590770673, 15672.640880661116, -3305.241859584077, 14861.786647055942, 7283.874724373189, -187500.02235174447, -187500.02235174447, -0.168, -0.8, -0.598, 192.0, 250.0, 192.0, 231.0, 0.0, 237.0, 80.0, 0.0, 0.0, 0.0, 1.6776154732421553E9, 0.0, 2023-02-28 12:17:53.242
29.0, 26994.000612974243, -4399.091529737893, 15955.882186398769, -3307.968772407624, 15007.117689504348, 7409.759749145478, -187500.02235174447, -187500.02235174447, -0.168, -0.8, -0.598, 192.0, 0.0, 0.0, 0.0, 0.0, 0.0, 0.0, 0.0, 0.0, 0.0, 1.6776154732460685E9, 0.0, 2023-02-28 12:17:53.246
30.0, 27007.076383480595, -4400.320875682935, 16026.513698877538, -3307.4099787962414, 15042.791073655018, 7408.552754944892, -187500.02235174447, -187500.02235174447, -0.168, -0.8, -0.598, 192.0, 0.0, 0.0, 0.0, 0.0, 0.0, 0.0, 0.0, 0.0, 0.0, 1.677615473251151E9, 0.0, 2023-02-28 12:17:53.251
31.0, 26955.957943911308, -4401.818442561441, 15753.174215933588, -3305.4653770286295, 14904.724348154587, 7281.840715627756, -187500.02235174447, -187500.02235174447, -0.168, -0.8, -0.598, 192.0, 0.0, 0.0, 0.0, 0.0, 0.0, 0.0, 0.0, 0.0, 0.0, 1.677615473255142E9, 0.0, 2023-02-28 12:17:53.255
32.0, 26928.018263342175, -4402.868974550841, 15649.126845494135, -3306.4488537846632, 14849.895519005719, 7266.708584631513, -187500.02235174447, -187500.02235174447, -0.168, -0.8, -0.598, 192.0, 0.0, 0.0, 0.0, 0.0, 0.0, 0.0, 0.0, 0.0, 0.0, 1.6776154732591918E9, 0.0, 2023-02-28 12:17:53.259
33.0, 26963.04344690364, -4402.868974550841, 15909.681130609648, -3309.8239671974147, 14979.669747313232, 7387.229190734529, -187500.02235174447, -187500.02235174447, -0.168, -0.8, -0.598, 192.0, 0.0, 0.0, 0.0, 0.0, 0.0, 0.0, 0.0, 0.0, 0.0, 1.6776154732622473E9, 0.0, 2023-02-28 12:17:53.262
34.0, 26980.634269789967, -4400.969076272139, 16048.932498566212, -3308.3711038078195, 15052.424675515256, 7415.638257937224, -187500.02235174447, -187500.02235174447, -0.168, -0.8, -0.598, 192.0, 0.0, 0.0, 0.0, 0.0, 0.0, 0.0, 0.0, 0.0, 0.0, 1.6776154732661817E9, 0.0, 2023-02-28 12:17:53.266
35.0, 26944.15622283891, -4398.689198337698, 15803.867972358225, -3304.4819002725962, 14927.456072265635, 7301.934933893077, -187500.02235174447, -187500.02235174447, -0.168, -0.8, -0.598, 192.0, 0.0, 0.0, 0.0, 0.0, 0.0, 0.0, 0.0, 0.0, 0.0, 1.677615473270157E9, 0.0, 2023-02-28 12:17:53.270
36.0, 26933.762661667188, -4396.230506447614, 15635.536984865306, -3303.8560514278474, 14838.719646778065, 7262.327642718273, -187500.02235174447, -187500.02235174447, -0.168, -0.8, -0.598, 192.0, 0.0, 0.0, 0.0, 0.0, 0.0, 0.0, 0.0, 0.0, 0.0, 1.677615473274136E9, 0.0, 2023-02-28 12:17:53.274
37.0, 26972.654697019425, -4395.939933769695, 15854.494673549496, -3306.1806328511993, 14950.098389398861, 7373.348757427783, -187500.02235174447, -187500.02235174447, -0.168, -0.8, -0.598, 192.0, 0.0, 0.0, 0.0, 0.0, 0.0, 0.0, 0.0, 0.0, 0.0, 1.67761547327906E9, 0.0, 2023-02-28 12:17:53.279
38.0, 26994.268833907707, -4394.799994802474, 16052.866405590345, -3306.0688741289227, 15055.732733694642, 7434.61488897978, -187500.02235174447, -187500.02235174447, -0.17, -0.8, -0.592, 192.0, 250.0, 176.0, 231.0, 0.0, 237.0, 128.0, 0.0, 0.0, 0.0, 1.6776154732831197E9, 0.0, 2023-02-28 12:17:53.283
39.0, 26959.53422302416, -4394.084738979905, 15854.56172878286, -3302.961981649635, 14957.273299369015, 7328.3770475837055, -187500.02235174447, -187500.02235174447, -0.17, -0.8, -0.592, 192.0, 0.0, 0.0, 0.0, 0.0, 0.0, 0.0, 0.0, 0.0, 0.0, 1.6776154732861595E9, 0.0, 2023-02-28 12:17:53.286
40.0, 26943.776243183165, -4391.313122667447, 15636.028723243324, -3301.486766515585, 14846.341591637325, 7255.286843214852, -187500.02235174447, -187500.02235174447, -0.17, -0.8, -0.592, 192.0, 0.0, 0.0, 0.0, 0.0, 0.0, 0.0, 0.0, 0.0, 0.0, 1.6776154732901921E9, 0.0, 2023-02-28 12:17:53.290
41.0, 26983.80821750262, -4388.832079032908, 15799.17410602261, -3303.7666444500264, 14930.80883393393, 7346.7501815259675, -187500.02235174447, -187500.02235174447, -0.17, -0.8, -0.592, 192.0, 0.0, 0.0, 0.0, 0.0, 0.0, 0.0, 0.0, 0.0, 0.0, 1.677615473294112E9, 0.0, 2023-02-28 12:17:53.294
42.0, 27019.548656886658, -4389.636741833298, 16045.490329920094, -3305.286563072987, 15057.476169762156, 7435.285441313439, -187500.02235174447, -187500.02235174447, -0.17, -0.8, -0.592, 192.0, 0.0, 0.0, 0.0, 0.0, 0.0, 0.0, 0.0, 0.0, 0.0, 1.6776154732980876E9, 0.0, 2023-02-28 12:17:53.298
43.0, 26992.88302575148, -4389.122651710827, 15906.976569530556, -3302.0455601269678, 14987.96224450615, 7350.21470191654, -187500.02235174447, -187500.02235174447, -0.17, -0.8, -0.592, 192.0, 0.0, 0.0, 0.0, 0.0, 0.0, 0.0, 0.0, 0.0, 0.0, 1.6776154733021216E9, 0.0, 2023-02-28 12:17:53.302
44.0, 26965.94917368283, -4388.608561588355, 15648.948031538492, -3300.03390312599, 14853.270632418471, 7258.5278461608705, -187500.02235174447, -187500.02235174447, -0.17, -0.8, -0.592, 192.0, 0.0, 0.0, 0.0, 0.0, 0.0, 0.0, 0.0, 0.0, 0.0, 1.6776154733071203E9, 0.0, 2023-02-28 12:17:53.307
45.0, 26971.09007490755, -4390.128480211315, 15745.194643163044, -3303.610182238839, 14897.795307373442, 7329.516986550926, -187500.02235174447, -187500.02235174447, -0.17, -0.8, -0.592, 192.0, 0.0, 0.0, 0.0, 0.0, 0.0, 0.0, 0.0, 0.0, 0.0, 1.677615473311142E9, 0.0, 2023-02-28 12:17:53.311
46.0, 26989.284394894174, -4389.212058688648, 16022.713902320136, -3305.4653770286295, 15038.4995387196, 7435.71012445809, -187500.02235174447, -187500.02235174447, -0.17, -0.8, -0.592, 192.0, 0.0, 0.0, 0.0, 0.0, 0.0, 0.0, 0.0, 0.0, 0.0, 1.6776154733141117E9, 0.0, 2023-02-28 12:17:53.314
47.0, 26970.508929551714, -4389.145003455282, 15956.195110821141, -3303.364313049831, 15010.224581983637, 7375.494524895493, -187500.02235174447, -187500.02235174447, -0.17, -0.8, -0.592, 192.0, 0.0, 0.0, 0.0, 0.0, 0.0, 0.0, 0.0, 0.0, 0.0, 1.677615473319205E9, 0.0, 2023-02-28 12:17:53.319
48.0, 26936.176650068363, -4389.904962766763, 15677.647671419105, -3301.196193837666, 14866.145237224728, 7264.831038097267, -187500.02235174447, -187500.02235174447, -0.17200000000000001, -0.802, -0.59, 192.0, 250.0, 160.0, 230.0, 240.0, 237.0, 144.0, 0.0, 0.0, 0.0, 1.677615473323152E9, 0.0, 2023-02-28 12:17:53.323
49.0, 26954.14745261043, -4392.318951167936, 15700.58056123025, -3303.744292705571, 14875.84589431833, 7303.276038560395, -187500.02235174447, -187500.02235174447, -0.17200000000000001, -0.802, -0.59, 192.0, 0.0, 0.0, 0.0, 0.0, 0.0, 0.0, 0.0, 0.0, 0.0, 1.677615473326254E9, 0.0, 2023-02-28 12:17:53.326
50.0, 26995.29701415265, -4392.855393034863, 15988.269864114507, -3305.577135750906, 15024.283829246026, 7419.818034150367, -187500.02235174447, -187500.02235174447, -0.17200000000000001, -0.802, -0.59, 192.0, 0.0, 0.0, 0.0, 0.0, 0.0, 0.0, 0.0, 0.0, 0.0, 1.6776154733301501E9, 0.0, 2023-02-28 12:17:53.330
51.0, 26983.048258191142, -4393.145965712782, 15999.803364253446, -3304.191327594677, 15028.441253714713, 7393.13005127073, -187500.02235174447, -187500.02235174447, -0.17200000000000001, -0.802, -0.59, 192.0, 0.0, 0.0, 0.0, 0.0, 0.0, 0.0, 0.0, 0.0, 0.0, 1.6776154733352096E9, 0.0, 2023-02-28 12:17:53.335
52.0, 26936.199001812816, -4394.1517942132705, 15717.232610849454, -3303.297257816465, 14881.813810087897, 7271.313043989307, -187500.02235174447, -187500.02235174447, -0.17200000000000001, -0.802, -0.59, 192.0, 0.0, 0.0, 0.0, 0.0, 0.0, 0.0, 0.0, 0.0, 0.0, 1.6776154733392441E9, 0.0, 2023-02-28 12:17:53.339
53.0, 26945.43027227286, -4391.983675001106, 15666.248281746899, -3303.520775261018, 14858.545644109923, 7278.912637104111, -187500.02235174447, -187500.02235174447, -0.17200000000000001, -0.802, -0.59, 192.0, 0.0, 0.0, 0.0, 0.0, 0.0, 0.0, 0.0, 0.0, 0.0, 1.6776154733422325E9, 0.0, 2023-02-28 12:17:53.342
54.0, 26997.86746476501, -4389.949666255673, 15944.751017660024, -3305.1301008618, 15003.049672013483, 7406.451690966093, -187500.02235174447, -187500.02235174447, -0.17200000000000001, -0.802, -0.59, 192.0, 0.0, 0.0, 0.0, 0.0, 0.0, 0.0, 0.0, 0.0, 0.0, 1.6776154733462107E9, 0.0, 2023-02-28 12:17:53.346
55.0, 27008.372784659005, -4389.435576133201, 16030.425254157217, -3303.945458405669, 15049.854224902896, 7411.190260790618, -187500.02235174447, -187500.02235174447, -0.17200000000000001, -0.802, -0.59, 192.0, 0.0, 0.0, 0.0, 0.0, 0.0, 0.0, 0.0, 0.0, 0.0, 1.67761547335022E9, 0.0, 2023-02-28 12:17:53.350
56.0, 26966.239746360752, -4389.480279622112, 15760.125608459188, -3300.302124059454, 14914.626170948288, 7285.618160440703, -187500.02235174447, -187500.02235174447, -0.17200000000000001, -0.802, -0.59, 192.0, 0.0, 0.0, 0.0, 0.0, 0.0, 0.0, 0.0, 0.0, 0.0, 1.677615473354164E9, 0.0, 2023-02-28 12:17:53.354
57.0, 26946.99489438473, -4392.140137212293, 15638.889746533603, -3300.36917929282, 14852.980059740552, 7264.33929971925, -187500.02235174447, -187500.02235174447, -0.17200000000000001, -0.802, -0.59, 192.0, 0.0, 0.0, 0.0, 0.0, 0.0, 0.0, 0.0, 0.0, 0.0, 1.677615473358219E9, 0.0, 2023-02-28 12:17:53.358
58.0, 26980.120179667498, -4394.487070380101, 15890.61509258927, -3303.900754916758, 14977.188703678692, 7386.8939145676995, -187500.02235174447, -187500.02235174447, -0.17400000000000002, -0.806, -0.592, 192.0, 250.0, 144.0, 230.0, 208.0, 237.0, 128.0, 0.0, 0.0, 0.0, 1.6776154733621695E9, 0.0, 2023-02-28 12:17:53.362
59.0, 26998.515665354214, -4395.895230280785, 16046.630268887315, -3304.7277694616046, 15053.430504015745, 7428.5128627434815, -187500.02235174447, -187500.02235174447, -0.17400000000000002, -0.806, -0.592, 192.0, 0.0, 0.0, 0.0, 0.0, 0.0, 0.0, 0.0, 0.0, 0.0, 1.6776154733671672E9, 0.0, 2023-02-28 12:17:53.367
60.0, 26961.411769558403, -4396.588134358899, 15811.80284163986, -3302.269077571521, 14931.926421156697, 7309.869803174711, -187500.02235174447, -187500.02235174447, -0.17400000000000002, -0.806, -0.592, 192.0, 0.0, 0.0, 0.0, 0.0, 0.0, 0.0, 0.0, 0.0, 0.0, 1.6776154733702035E9, 0.0, 2023-02-28 12:17:53.370
61.0, 26943.798594927623, -4394.397663402279, 15631.893650519092, -3301.3079525599424, 14837.490300833024, 7256.002099037421, -187500.02235174447, -187500.02235174447, -0.17400000000000002, -0.806, -0.592, 192.0, 0.0, 0.0, 0.0, 0.0, 0.0, 0.0, 0.0, 0.0, 0.0, 1.6776154733742068E9, 0.0, 2023-02-28 12:17:53.374
62.0, 26977.370915099495, -4396.185802958704, 15839.85428093127, -3304.8618799283363, 14942.990534662073, 7367.134972469208, -187500.02235174447, -187500.02235174447, -0.17400000000000002, -0.806, -0.592, 192.0, 0.0, 0.0, 0.0, 0.0, 0.0, 0.0, 0.0, 0.0, 0.0, 1.6776154733782525E9, 0.0, 2023-02-28 12:17:53.378
63.0, 26999.923825254897, -4394.554125613467, 16050.877100333822, -3304.280734572498, 15053.4528557602, 7436.045400624919, -187500.02235174447, -187500.02235174447, -0.17400000000000002, -0.806, -0.592, 192.0, 0.0, 0.0, 0.0, 0.0, 0.0, 0.0, 0.0, 0.0, 0.0, 1.6776154733822072E9, 0.0, 2023-02-28 12:17:53.382
64.0, 26969.592508029047, -4392.609523845855, 15864.776475998937, -3300.5256415040067, 14960.53665405949, 7331.841567974278, -187500.02235174447, -187500.02235174447, -0.17400000000000002, -0.806, -0.592, 192.0, 0.0, 0.0, 0.0, 0.0, 0.0, 0.0, 0.0, 0.0, 0.0, 1.6776154733861773E9, 0.0, 2023-02-28 12:17:53.386
65.0, 26942.6586559604, -4392.721282568131, 15636.609868599162, -3300.2350688260876, 14843.189995669127, 7253.38694493615, -187500.02235174447, -187500.02235174447, -0.17400000000000002, -0.806, -0.592, 192.0, 0.0, 0.0, 0.0, 0.0, 0.0, 0.0, 0.0, 0.0, 0.0, 1.677615473390206E9, 0.0, 2023-02-28 12:17:53.390
66.0, 26967.893775450444, -4395.314084924947, 15786.478315171995, -3304.236031083588, 14915.833165148875, 7342.50335007946, -187500.02235174447, -187500.02235174447, -0.17400000000000002, -0.806, -0.592, 192.0, 0.0, 0.0, 0.0, 0.0, 0.0, 0.0, 0.0, 0.0, 0.0, 1.6776154733952892E9, 0.0, 2023-02-28 12:17:53.395
67.0, 27002.62838633399, -4394.9117535247515, 16039.723579850624, -3305.4206735397192, 15045.652096945298, 7432.37971453425, -187500.02235174447, -187500.02235174447, -0.17400000000000002, -0.806, -0.592, 192.0, 0.0, 0.0, 0.0, 0.0, 0.0, 0.0, 0.0, 0.0, 0.0, 1.6776154733982482E9, 0.0, 2023-02-28 12:17:53.398
68.0, 26978.175577899885, -4393.771814557531, 15916.81133709089, -3300.972676393113, 14985.883532271808, 7356.830818275312, -187500.02235174447, -187500.02235174447, -0.17200000000000001, -0.808, -0.592, 192.0, 250.0, 160.0, 230.0, 192.0, 237.0, 128.0, 0.0, 0.0, 0.0, 1.6776154734032664E9, 0.0, 2023-02-28 12:17:53.403
69.0, 26942.032807115655, -4393.615352346344, 15652.881938562625, -3298.7598536920377, 14850.342553894825, 7260.159523506109, -187500.02235174447, -187500.02235174447, -0.17200000000000001, -0.808, -0.592, 192.0, 0.0, 0.0, 0.0, 0.0, 0.0, 0.0, 0.0, 0.0, 0.0, 1.6776154734062507E9, 0.0, 2023-02-28 12:17:53.406
70.0, 26957.388455556447, -4396.006989003061, 15731.805948234314, -3301.9561531491463, 14890.598045658833, 7319.1010736347525, -187500.02235174447, -187500.02235174447, -0.17200000000000001, -0.808, -0.592, 192.0, 0.0, 0.0, 0.0, 0.0, 0.0, 0.0, 0.0, 0.0, 0.0, 1.677615473410259E9, 0.0, 2023-02-28 12:17:53.410
71.0, 26993.30770889613, -4400.477337894123, 16012.320341148417, -3306.493557273574, 15033.805672383985, 7424.355438274794, -187500.02235174447, -187500.02235174447, -0.17200000000000001, -0.808, -0.592, 192.0, 0.0, 0.0, 0.0, 0.0, 0.0, 0.0, 0.0, 0.0, 0.0, 1.677615473414332E9, 0.0, 2023-02-28 12:17:53.414
72.0, 26983.7188105248, -4401.818442561441, 15966.946299904144, -3305.7559497065486, 15009.531677905523, 7369.481905637015, -187500.02235174447, -187500.02235174447, -0.17200000000000001, -0.808, -0.592, 192.0, 0.0, 0.0, 0.0, 0.0, 0.0, 0.0, 0.0, 0.0, 0.0, 1.6776154734183097E9, 0.0, 2023-02-28 12:17:53.418
73.0, 26942.47984200476, -4401.282000694514, 15685.180209300544, -3303.386664794286, 14865.809961057897, 7255.398601937128, -187500.02235174447, -187500.02235174447, -0.17200000000000001, -0.808, -0.592, 192.0, 0.0, 0.0, 0.0, 0.0, 0.0, 0.0, 0.0, 0.0, 0.0, 1.6776154734232824E9, 0.0, 2023-02-28 12:17:53.423
74.0, 26949.408882785905, -4402.690160595198, 15690.902255881103, -3305.912411917736, 14866.905196536209, 7287.58511395277, -187500.02235174447, -187500.02235174447, -0.17200000000000001, -0.808, -0.592, 192.0, 0.0, 0.0, 0.0, 0.0, 0.0, 0.0, 0.0, 0.0, 0.0, 1.67761547342627E9, 0.0, 2023-02-28 12:17:53.426
75.0, 26994.201778674338, -4401.4831663946115, 15978.636262254271, -3307.901717174258, 15013.957323307674, 7407.770443888956, -187500.02235174447, -187500.02235174447, -0.17200000000000001, -0.808, -0.592, 192.0, 0.0, 0.0, 0.0, 0.0, 0.0, 0.0, 0.0, 0.0, 0.0, 1.6776154734302635E9, 0.0, 2023-02-28 12:17:53.430
76.0, 26989.798485016643, -4399.046826248983, 16006.665349801226, -3305.3089148174427, 15030.4976142046, 7389.173792502141, -187500.02235174447, -187500.02235174447, -0.17200000000000001, -0.808, -0.592, 192.0, 0.0, 0.0, 0.0, 0.0, 0.0, 0.0, 0.0, 0.0, 0.0, 1.6776154734342985E9, 0.0, 2023-02-28 12:17:53.434
77.0, 26942.681007704858, -4397.817480303941, 15725.234535364454, -3302.067911871423, 14889.52516192498, 7267.110916031709, -187500.02235174447, -187500.02235174447, -0.17200000000000001, -0.808, -0.592, 192.0, 0.0, 0.0, 0.0, 0.0, 0.0, 0.0, 0.0, 0.0, 0.0, 1.6776154734382584E9, 0.0, 2023-02-28 12:17:53.438
78.0, 26941.608123971004, -4397.191631459193, 15656.927604309036, -3302.716112460627, 14857.495112120523, 7268.452020699027, -187500.02235174447, -187500.02235174447, -0.17, -0.804, -0.592, 192.0, 250.0, 176.0, 230.0, 224.0, 237.0, 128.0, 0.0, 0.0, 0.0, 1.677615473442269E9, 0.0, 2023-02-28 12:17:53.442
79.0, 26983.00355470223, -4396.610486103355, 15929.708293641603, -3305.1301008618, 14997.327625432925, 7393.867658837755, -187500.02235174447, -187500.02235174447, -0.17, -0.804, -0.592, 192.0, 0.0, 0.0, 0.0, 0.0, 0.0, 0.0, 0.0, 0.0, 0.0, 1.677615473446371E9, 0.0, 2023-02-28 12:17:53.446
80.0, 26993.330060640583, -4395.559954113955, 16031.207565213153, -3304.3477898058645, 15051.418847014767, 7408.575106689347, -187500.02235174447, -187500.02235174447, -0.17, -0.804, -0.592, 192.0, 0.0, 0.0, 0.0, 0.0, 0.0, 0.0, 0.0, 0.0, 0.0, 1.6776154734512892E9, 0.0, 2023-02-28 12:17:53.451
81.0, 26953.208679343308, -4395.895230280785, 15768.529864374384, -3301.330304304398, 14916.928400627185, 7289.619122698203, -187500.02235174447, -187500.02235174447, -0.17, -0.804, -0.592, 192.0, 0.0, 0.0, 0.0, 0.0, 0.0, 0.0, 0.0, 0.0, 0.0, 1.6776154734544404E9, 0.0, 2023-02-28 12:17:53.454
82.0, 26937.71892043578, -4398.420977404235, 15634.575859853729, -3303.006685138546, 14842.966478224575, 7261.031241539865, -187500.02235174447, -187500.02235174447, -0.17, -0.804, -0.592, 192.0, 0.0, 0.0, 0.0, 0.0, 0.0, 0.0, 0.0, 0.0, 0.0, 1.6776154734573617E9, 0.0, 2023-02-28 12:17:53.457
83.0, 26978.644964533447, -4399.538564627, 15878.321633138852, -3306.6947229736716, 14963.688250027688, 7379.294321452895, -187500.02235174447, -187500.02235174447, -0.17, -0.804, -0.592, 192.0, 0.0, 0.0, 0.0, 0.0, 0.0, 0.0, 0.0, 0.0, 0.0, 1.677615473462426E9, 0.0, 2023-02-28 12:17:53.462
84.0, 26998.359203143027, -4397.01281750355, 16046.004420042565, -3305.9794671511017, 15052.804655170996, 7423.6401824522245, -187500.02235174447, -187500.02235174447, -0.17, -0.804, -0.592, 192.0, 0.0, 0.0, 0.0, 0.0, 0.0, 0.0, 0.0, 0.0, 0.0, 1.6776154734663808E9, 0.0, 2023-02-28 12:17:53.466
85.0, 26955.7120747223, -4393.5035936240665, 15821.101167333267, -3301.330304304398, 14943.102293384349, 7310.987390397477, -187500.02235174447, -187500.02235174447, -0.17, -0.804, -0.592, 192.0, 0.0, 0.0, 0.0, 0.0, 0.0, 0.0, 0.0, 0.0, 0.0, 1.6776154734704523E9, 0.0, 2023-02-28 12:17:53.470
86.0, 26939.79763267012, -4390.44140463369, 15628.742054550894, -3300.346827548364, 14840.619545056767, 7253.72222110298, -187500.02235174447, -187500.02235174447, -0.17, -0.804, -0.592, 192.0, 0.0, 0.0, 0.0, 0.0, 0.0, 0.0, 0.0, 0.0, 0.0, 1.6776154734744008E9, 0.0, 2023-02-28 12:17:53.474
87.0, 26977.840301733057, -4391.313122667447, 15823.93983887909, -3303.386664794286, 14933.401636290746, 7359.289510165395, -187500.02235174447, -187500.02235174447, -0.17, -0.804, -0.592, 192.0, 0.0, 0.0, 0.0, 0.0, 0.0, 0.0, 0.0, 0.0, 0.0, 1.677615473479379E9, 0.0, 2023-02-28 12:17:53.479
88.0, 27005.064726479617, -4392.698930823676, 16045.624440386826, -3304.4148450392304, 15048.937803380228, 7430.815092422377, -187500.02235174447, -187500.02235174447, -0.168, -0.806, -0.59, 192.0, 250.0, 192.0, 230.0, 208.0, 237.0, 144.0, 0.0, 0.0, 0.0, 1.6776154734823635E9, 0.0, 2023-02-28 12:17:53.482
89.0, 26982.131836668475, -4390.128480211315, 15873.560711569871, -3300.8609176708364, 14962.101276171361, 7332.378009841205, -187500.02235174447, -187500.02235174447, -0.168, -0.806, -0.59, 192.0, 0.0, 0.0, 0.0, 0.0, 0.0, 0.0, 0.0, 0.0, 0.0, 1.67761547348548E9, 0.0, 2023-02-28 12:17:53.485
90.0, 26949.587696741546, -4388.96618949964, 15636.498109876886, -3299.944496148169, 14836.283306632437, 7252.202302480019, -187500.02235174447, -187500.02235174447, -0.168, -0.806, -0.59, 192.0, 0.0, 0.0, 0.0, 0.0, 0.0, 0.0, 0.0, 0.0, 0.0, 1.677615473490481E9, 0.0, 2023-02-28 12:17:53.490
91.0, 26973.258194119717, -4388.519154610533, 15770.183893464076, -3302.2020223381546, 14901.66215916421, 7336.378972098705, -187500.02235174447, -187500.02235174447, -0.168, -0.806, -0.59, 192.0, 0.0, 0.0, 0.0, 0.0, 0.0, 0.0, 0.0, 0.0, 0.0, 1.6776154734944153E9, 0.0, 2023-02-28 12:17:53.494
92.0, 27014.340700428573, -4390.016721489039, 16030.469957646128, -3303.0737403719118, 15036.823157885452, 7433.698467457112, -187500.02235174447, -187500.02235174447, -0.168, -0.806, -0.59, 192.0, 0.0, 0.0, 0.0, 0.0, 0.0, 0.0, 0.0, 0.0, 0.0, 1.6776154734984155E9, 0.0, 2023-02-28 12:17:53.498
93.0, 26987.47390359329, -4392.006026745561, 15927.048436051422, -3300.324475803909, 14986.464677627646, 7360.250635176973, -187500.02235174447, -187500.02235174447, -0.168, -0.806, -0.59, 192.0, 0.0, 0.0, 0.0, 0.0, 0.0, 0.0, 0.0, 0.0, 0.0, 1.677615473502397E9, 0.0, 2023-02-28 12:17:53.502
94.0, 26944.491499005737, -4391.2684191785365, 15659.274537476844, -3298.8269089254036, 14850.186091683638, 7256.940872304544, -187500.02235174447, -187500.02235174447, -0.168, -0.806, -0.59, 192.0, 0.0, 0.0, 0.0, 0.0, 0.0, 0.0, 0.0, 0.0, 0.0, 1.6776154735063884E9, 0.0, 2023-02-28 12:17:53.506
95.0, 26958.304877079117, -4393.056558734961, 15722.284105096354, -3302.4925950160737, 14879.779801342465, 7313.2896200763735, -187500.02235174447, -187500.02235174447, -0.168, -0.806, -0.59, 192.0, 0.0, 0.0, 0.0, 0.0, 0.0, 0.0, 0.0, 0.0, 0.0, 1.6776154735093904E9, 0.0, 2023-02-28 12:17:53.509
96.0, 26996.660470564424, -4395.716416325142, 16005.234838156086, -3305.241859584077, 15024.01560831256, 7424.7577696749895, -187500.02235174447, -187500.02235174447, -0.168, -0.806, -0.59, 192.0, 0.0, 0.0, 0.0, 0.0, 0.0, 0.0, 0.0, 0.0, 0.0, 1.6776154735134797E9, 0.0, 2023-02-28 12:17:53.513
97.0, 26986.28926113716, -4397.951590770673, 15975.708183730625, -3303.9901618945796, 15013.622047140843, 7376.992091773998, -187500.02235174447, -187500.02235174447, -0.168, -0.806, -0.59, 192.0, 0.0, 0.0, 0.0, 0.0, 0.0, 0.0, 0.0, 0.0, 0.0, 1.6776154735183997E9, 0.0, 2023-02-28 12:17:53.518
98.0, 26946.0114176287, -4397.683369837209, 15694.34442452722, -3302.5372985049844, 14872.381373927758, 7259.9136543171, -187500.02235174447, -187500.02235174447, -0.17200000000000001, -0.81, -0.59, 192.0, 250.0, 160.0, 230.0, 176.0, 237.0, 144.0, 0.0, 0.0, 0.0, 1.6776154735223844E9, 0.0, 2023-02-28 12:17:53.522
99.0, 26958.796615457133, -4396.610486103355, 15683.302662766298, -3303.7219409611157, 14864.088876734839, 7289.887343631666, -187500.02235174447, -187500.02235174447, -0.17200000000000001, -0.81, -0.59, 192.0, 0.0, 0.0, 0.0, 0.0, 0.0, 0.0, 0.0, 0.0, 0.0, 1.677615473526402E9, 0.0, 2023-02-28 12:17:53.526
100.0, 27003.611863090024, -4395.716416325142, 15967.460390026617, -3306.202984595655, 15008.883477316318, 7411.547888701903, -187500.02235174447, -187500.02235174447, -0.17200000000000001, -0.81, -0.59, 192.0, 0.0, 0.0, 0.0, 0.0, 0.0, 0.0, 0.0, 0.0, 0.0, 1.6776154735304492E9, 0.0, 2023-02-28 12:17:53.530
101.0, 26993.888854251963, -4396.074044236427, 16014.510812105038, -3304.526603761507, 15034.476224717644, 7400.081443796331, -187500.02235174447, -187500.02235174447, -0.17200000000000001, -0.81, -0.59, 192.0, 0.0, 0.0, 0.0, 0.0, 0.0, 0.0, 0.0, 0.0, 0.0, 1.6776154735344057E9, 0.0, 2023-02-28 12:17:53.534
102.0, 26948.648923474422, -4397.057520992461, 15736.142186658644, -3302.336132804887, 14892.363833470803, 7278.398546981639, -187500.02235174447, -187500.02235174447, -0.17200000000000001, -0.81, -0.59, 192.0, 0.0, 0.0, 0.0, 0.0, 0.0, 0.0, 0.0, 0.0, 0.0, 1.67761547353737E9, 0.0, 2023-02-28 12:17:53.537
103.0, 26946.123176350975, -4397.079872736916, 15653.597194385195, -3303.520775261018, 14848.956745738597, 7274.956378335522, -187500.02235174447, -187500.02235174447, -0.17200000000000001, -0.81, -0.59, 192.0, 0.0, 0.0, 0.0, 0.0, 0.0, 0.0, 0.0, 0.0, 0.0, 1.67761547354137E9, 0.0, 2023-02-28 12:17:53.541
104.0, 26995.29701415265, -4397.72807332612, 15921.572258659871, -3306.9852956515906, 14986.44232588319, 7400.170850774151, -187500.02235174447, -187500.02235174447, -0.17200000000000001, -0.81, -0.59, 192.0, 0.0, 0.0, 0.0, 0.0, 0.0, 0.0, 0.0, 0.0, 0.0, 1.677615473546471E9, 0.0, 2023-02-28 12:17:53.546
105.0, 27007.769287558713, -4397.504555881566, 16038.807158327958, -3306.0241706400125, 15049.965983625172, 7419.907441128188, -187500.02235174447, -187500.02235174447, -0.17200000000000001, -0.81, -0.59, 192.0, 0.0, 0.0, 0.0, 0.0, 0.0, 0.0, 0.0, 0.0, 0.0, 1.677615473550475E9, 0.0, 2023-02-28 12:17:53.550
106.0, 26962.886984692454, -4397.526907626022, 15782.633815125682, -3302.1349671047888, 14919.85647915083, 7295.832907656778, -187500.02235174447, -187500.02235174447, -0.17200000000000001, -0.81, -0.59, 192.0, 0.0, 0.0, 0.0, 0.0, 0.0, 0.0, 0.0, 0.0, 0.0, 1.6776154735544577E9, 0.0, 2023-02-28 12:17:53.554
107.0, 26950.48176651976, -4397.169279714737, 15632.720665063938, -3301.8890979157804, 14843.145292180216, 7258.974881049977, -187500.02235174447, -187500.02235174447, -0.17200000000000001, -0.81, -0.59, 192.0, 0.0, 0.0, 0.0, 0.0, 0.0, 0.0, 0.0, 0.0, 0.0, 1.6776154735584037E9, 0.0, 2023-02-28 12:17:53.558
108.0, 26980.991897701253, -4398.957419271162, 15864.62001378775, -3305.554784006451, 14965.476389584112, 7373.594626616791, -187500.02235174447, -187500.02235174447, -0.178, -0.808, -0.588, 192.0, 250.0, 112.0, 230.0, 192.0, 237.0, 160.0, 0.0, 0.0, 0.0, 1.6776154735614495E9, 0.0, 2023-02-28 12:17:53.561
109.0, 27000.63908107747, -4399.404454160268, 16047.41257994325, -3306.7394264625823, 15058.45964651819, 7421.561470217881, -187500.02235174447, -187500.02235174447, -0.178, -0.808, -0.588, 192.0, 0.0, 0.0, 0.0, 0.0, 0.0, 0.0, 0.0, 0.0, 0.0, 1.677615473565476E9, 0.0, 2023-02-28 12:17:53.565
110.0, 26967.893775450444, -4398.555087870966, 15834.199289584076, -3303.1407956052776, 14949.96427893213, 7311.389721797672, -187500.02235174447, -187500.02235174447, -0.178, -0.808, -0.588, 192.0, 0.0, 0.0, 0.0, 0.0, 0.0, 0.0, 0.0, 0.0, 0.0, 1.6776154735694685E9, 0.0, 2023-02-28 12:17:53.569
111.0, 26942.14456583793, -4397.236334948103, 15628.85381327317, -3301.0844351153896, 14843.45821660259, 7249.900072801122, -187500.02235174447, -187500.02235174447, -0.178, -0.808, -0.588, 192.0, 0.0, 0.0, 0.0, 0.0, 0.0, 0.0, 0.0, 0.0, 0.0, 1.6776154735744011E9, 0.0, 2023-02-28 12:17:53.574
112.0, 26976.476845321282, -4397.2586866925585, 15808.874763116213, -3303.4313682831967, 14934.183947346683, 7348.068934448831, -187500.02235174447, -187500.02235174447, -0.178, -0.808, -0.588, 192.0, 0.0, 0.0, 0.0, 0.0, 0.0, 0.0, 0.0, 0.0, 0.0, 1.6776154735784624E9, 0.0, 2023-02-28 12:17:53.578
113.0, 27003.96949100131, -4399.3150471824465, 16041.377608940318, -3305.1301008618, 15052.849358659907, 7425.294211541916, -187500.02235174447, -187500.02235174447, -0.178, -0.808, -0.588, 192.0, 0.0, 0.0, 0.0, 0.0, 0.0, 0.0, 0.0, 0.0, 0.0, 1.6776154735824125E9, 0.0, 2023-02-28 12:17:53.582
114.0, 26969.458397562314, -4399.247991949081, 15885.787115786925, -3301.911449660236, 14971.466657098134, 7333.383838341694, -187500.02235174447, -187500.02235174447, -0.178, -0.808, -0.588, 192.0, 0.0, 0.0, 0.0, 0.0, 0.0, 0.0, 0.0, 0.0, 0.0, 1.6776154735864863E9, 0.0, 2023-02-28 12:17:53.586
115.0, 26937.607161713502, -4398.912715782251, 15642.533080879819, -3300.8162141819257, 14840.820710756865, 7249.0730582562755, -187500.02235174447, -187500.02235174447, -0.178, -0.808, -0.588, 192.0, 0.0, 0.0, 0.0, 0.0, 0.0, 0.0, 0.0, 0.0, 0.0, 1.677615473590486E9, 0.0, 2023-02-28 12:17:53.590
116.0, 26962.507005036714, -4397.169279714737, 15760.93027125958, -3303.4090165387415, 14900.768089385998, 7325.78424522689, -187500.02235174447, -187500.02235174447, -0.178, -0.808, -0.588, 192.0, 0.0, 0.0, 0.0, 0.0, 0.0, 0.0, 0.0, 0.0, 0.0, 1.6776154735934622E9, 0.0, 2023-02-28 12:17:53.593
117.0, 26997.085153709075, -4397.057520992461, 16027.69834133367, -3304.8171764394256, 15042.522852721555, 7422.768464418467, -187500.02235174447, -187500.02235174447, -0.178, -0.808, -0.588, 192.0, 0.0, 0.0, 0.0, 0.0, 0.0, 0.0, 0.0, 0.0, 0.0, 1.6776154735974872E9, 0.0, 2023-02-28 12:17:53.597
118.0, 26973.32524935308, -4399.471509393634, 15940.325372257874, -3303.096092116367, 14997.752308577576, 7355.3779548857165, -187500.02235174447, -187500.02235174447, -0.178, -0.808, -0.588, 192.0, 0.0, 0.0, 0.0, 0.0, 0.0, 0.0, 0.0, 0.0, 0.0, 1.6776154736024368E9, 0.0, 2023-02-28 12:17:53.602
119.0, 26941.451661759816, -4399.9632477716505, 15666.58355791373, -3302.2467258270653, 14854.857606274798, 7251.017660023887, -187500.02235174447, -187500.02235174447, -0.176, -0.808, -0.59, 192.0, 250.0, 128.0, 230.0, 192.0, 237.0, 144.0, 0.0, 0.0, 0.0, 1.6776154736064703E9, 0.0, 2023-02-28 12:17:53.606
120.0, 26958.90837417941, -4400.969076272139, 15712.717558469483, -3305.197156095166, 14876.605853629811, 7302.851355415744, -187500.02235174447, -187500.02235174447, -0.176, -0.808, -0.59, 192.0, 0.0, 0.0, 0.0, 0.0, 0.0, 0.0, 0.0, 0.0, 0.0, 1.677615473610458E9, 0.0, 2023-02-28 12:17:53.610
121.0, 26999.81206653262, -4400.924372783229, 15995.824753740402, -3306.7394264625823, 15025.334361235424, 7419.035723094431, -187500.02235174447, -187500.02235174447, -0.176, -0.808, -0.59, 192.0, 0.0, 0.0, 0.0, 0.0, 0.0, 0.0, 0.0, 0.0, 0.0, 1.677615473614552E9, 0.0, 2023-02-28 12:17:53.614
122.0, 26979.583737800567, -4402.399587917279, 15981.609044266826, -3305.197156095166, 15019.768776866053, 7381.529495898426, -187500.02235174447, -187500.02235174447, -0.176, -0.808, -0.59, 192.0, 0.0, 0.0, 0.0, 0.0, 0.0, 0.0, 0.0, 0.0, 0.0, 1.67761547361753E9, 0.0, 2023-02-28 12:17:53.617
123.0, 26931.259266288194, -4403.763044329053, 15699.06064260729, -3303.1854990941883, 14873.834237317353, 7261.05359328432, -187500.02235174447, -187500.02235174447, -0.176, -0.808, -0.59, 192.0, 0.0, 0.0, 0.0, 0.0, 0.0, 0.0, 0.0, 0.0, 0.0, 1.677615473621477E9, 0.0, 2023-02-28 12:17:53.621
124.0, 26936.15429832391, -4403.986561773606, 15671.769162627359, -3305.0853973728895, 14857.31629816488, 7278.7114714040135, -187500.02235174447, -187500.02235174447, -0.176, -0.808, -0.59, 192.0, 0.0, 0.0, 0.0, 0.0, 0.0, 0.0, 0.0, 0.0, 0.0, 1.677615473625474E9, 0.0, 2023-02-28 12:17:53.625
125.0, 26978.24263313325, -4402.354884428369, 15952.417666008196, -3307.1417578627775, 15002.177953979726, 7403.7471298870005, -187500.02235174447, -187500.02235174447, -0.176, -0.808, -0.59, 192.0, 0.0, 0.0, 0.0, 0.0, 0.0, 0.0, 0.0, 0.0, 0.0, 1.677615473629505E9, 0.0, 2023-02-28 12:17:53.629
126.0, 26989.552615827637, -4401.147890227782, 16013.996721982567, -3306.0241706400125, 15035.124425306849, 7400.640237407713, -187500.02235174447, -187500.02235174447, -0.176, -0.808, -0.59, 192.0, 0.0, 0.0, 0.0, 0.0, 0.0, 0.0, 0.0, 0.0, 0.0, 1.677615473634565E9, 0.0, 2023-02-28 12:17:53.634
127.0, 26954.125100865975, -4400.522041383033, 15739.517300071395, -3302.4031880382527, 14897.907066095719, 7277.146849292141, -187500.02235174447, -187500.02235174447, -0.176, -0.808, -0.59, 192.0, 0.0, 0.0, 0.0, 0.0, 0.0, 0.0, 0.0, 0.0, 0.0, 1.6776154736385553E9, 0.0, 2023-02-28 12:17:53.638
128.0, 26945.609086228502, -4400.700855338676, 15642.398970413087, -3302.7831676939927, 14849.761408538987, 7262.998195051932, -187500.02235174447, -187500.02235174447, -0.176, -0.808, -0.59, 192.0, 0.0, 0.0, 0.0, 0.0, 0.0, 0.0, 0.0, 0.0, 0.0, 1.6776154736425216E9, 0.0, 2023-02-28 12:17:53.642
129.0, 26988.256214649227, -4400.387930916301, 15905.791927074424, -3305.0853973728895, 14981.39083163629, 7388.123260512742, -187500.02235174447, -187500.02235174447, -0.17, -0.81, -0.586, 192.0, 250.0, 176.0, 230.0, 176.0, 237.0, 176.0, 0.0, 0.0, 0.0, 1.6776154736455648E9, 0.0, 2023-02-28 12:17:53.645
130.0, 26991.38545887297, -4400.29852393848, 16038.94126879469, -3304.7277694616046, 15053.095227848915, 7416.5993829488025, -187500.02235174447, -187500.02235174447, -0.17, -0.81, -0.586, 192.0, 0.0, 0.0, 0.0, 0.0, 0.0, 0.0, 0.0, 0.0, 0.0, 1.6776154736495488E9, 0.0, 2023-02-28 12:17:53.649
131.0, 26950.19119384184, -4399.1362332268045, 15792.379175708196, -3301.8667461713253, 14928.841880421864, 7295.810555912323, -187500.02235174447, -187500.02235174447, -0.17, -0.81, -0.586, 192.0, 0.0, 0.0, 0.0, 0.0, 0.0, 0.0, 0.0, 0.0, 0.0, 1.6776154736534843E9, 0.0, 2023-02-28 12:17:53.653
132.0, 26937.09307159103, -4400.656151849765, 15632.720665063938, -3303.4984235165625, 14843.36880962477, 7253.096372258231, -187500.02235174447, -187500.02235174447, -0.17, -0.81, -0.586, 192.0, 0.0, 0.0, 0.0, 0.0, 0.0, 0.0, 0.0, 0.0, 0.0, 1.6776154736584775E9, 0.0, 2023-02-28 12:17:53.658
133.0, 26972.38647608596, -4403.338361184402, 15856.729847995026, -3308.1475863632663, 14955.57456679041, 7365.145667212685, -187500.02235174447, -187500.02235174447, -0.17, -0.81, -0.586, 192.0, 0.0, 0.0, 0.0, 0.0, 0.0, 0.0, 0.0, 0.0, 0.0, 1.6776154736625724E9, 0.0, 2023-02-28 12:17:53.662
134.0, 26994.984089730275, -4403.383064673312, 16050.541824166994, -3308.9522491636576, 15054.324573793958, 7421.539118473425, -187500.02235174447, -187500.02235174447, -0.17, -0.81, -0.586, 192.0, 0.0, 0.0, 0.0, 0.0, 0.0, 0.0, 0.0, 0.0, 0.0, 1.6776154736665993E9, 0.0, 2023-02-28 12:17:53.666
135.0, 26962.395246314438, -4400.969076272139, 15847.744446723993, -3304.325438061409, 14950.701886499153, 7314.138986365675, -187500.02235174447, -187500.02235174447, -0.17, -0.81, -0.586, 192.0, 0.0, 0.0, 0.0, 0.0, 0.0, 0.0, 0.0, 0.0, 0.0, 1.6776154736705434E9, 0.0, 2023-02-28 12:17:53.670
136.0, 26946.100824606518, -4399.627971604821, 15632.76536855285, -3302.5372985049844, 14841.357152623792, 7248.022526266876, -187500.02235174447, -187500.02235174447, -0.17, -0.81, -0.586, 192.0, 0.0, 0.0, 0.0, 0.0, 0.0, 0.0, 0.0, 0.0, 0.0, 1.6776154736735492E9, 0.0, 2023-02-28 12:17:53.673
137.0, 26983.58470005807, -4401.170241972237, 15800.738728134482, -3304.906583417247, 14925.489118753567, 7344.6938210360795, -187500.02235174447, -187500.02235174447, -0.17, -0.81, -0.586, 192.0, 0.0, 0.0, 0.0, 0.0, 0.0, 0.0, 0.0, 0.0, 0.0, 1.6776154736776123E9, 0.0, 2023-02-28 12:17:53.677
138.0, 27018.78869757518, -4403.5395268844995, 16042.137568251797, -3306.851185184859, 15044.713323678176, 7424.7577696749895, -187500.02235174447, -187500.02235174447, -0.17, -0.81, -0.586, 192.0, 0.0, 0.0, 0.0, 0.0, 0.0, 0.0, 0.0, 0.0, 0.0, 1.6776154736815803E9, 0.0, 2023-02-28 12:17:53.681
139.0, 26989.284394894174, -4402.198422217181, 15899.086403737832, -3303.4984235165625, 14972.5842443209, 7333.473245319516, -187500.02235174447, -187500.02235174447, -0.17, -0.808, -0.586, 192.0, 250.0, 176.0, 230.0, 192.0, 237.0, 176.0, 0.0, 0.0, 0.0, 1.6776154736856549E9, 0.0, 2023-02-28 12:17:53.685
140.0, 26939.28354254765, -4402.444291406189, 15646.087008248212, -3301.8890979157804, 14844.218175914071, 7245.563834376792, -187500.02235174447, -187500.02235174447, -0.17, -0.808, -0.586, 192.0, 0.0, 0.0, 0.0, 0.0, 0.0, 0.0, 0.0, 0.0, 0.0, 1.677615473690544E9, 0.0, 2023-02-28 12:17:53.690
141.0, 26952.918106665387, -4401.416111161246, 15748.323887386787, -3304.0795688724006, 14895.783650372465, 7319.413998057127, -187500.02235174447, -187500.02235174447, -0.17, -0.808, -0.586, 192.0, 0.0, 0.0, 0.0, 0.0, 0.0, 0.0, 0.0, 0.0, 0.0, 1.6776154736946504E9, 0.0, 2023-02-28 12:17:53.694
142.0, 26992.25717690673, -4401.594925116888, 16019.964637752133, -3306.7394264625823, 15035.772625896052, 7425.271859797462, -187500.02235174447, -187500.02235174447, -0.17, -0.808, -0.586, 192.0, 0.0, 0.0, 0.0, 0.0, 0.0, 0.0, 0.0, 0.0, 0.0, 1.677615473697575E9, 0.0, 2023-02-28 12:17:53.697
143.0, 26971.939441196853, -4400.2538204495695, 15946.472101983083, -3304.4371967836855, 14999.004006267072, 7364.810391045856, -187500.02235174447, -187500.02235174447, -0.17, -0.808, -0.586, 192.0, 0.0, 0.0, 0.0, 0.0, 0.0, 0.0, 0.0, 0.0, 0.0, 1.6776154737015893E9, 0.0, 2023-02-28 12:17:53.701
144.0, 26932.332150022048, -4402.10901523936, 15669.86926434866, -3302.6937607161717, 14858.679754576655, 7253.34224144724, -187500.02235174447, -187500.02235174447, -0.17, -0.808, -0.586, 192.0, 0.0, 0.0, 0.0, 0.0, 0.0, 0.0, 0.0, 0.0, 0.0, 1.6776154737055647E9, 0.0, 2023-02-28 12:17:53.705
145.0, 26947.732501951756, -4406.579364130422, 15699.552380985306, -3306.202984595655, 14870.190902971139, 7295.497631489949, -187500.02235174447, -187500.02235174447, -0.17, -0.808, -0.586, 192.0, 0.0, 0.0, 0.0, 0.0, 0.0, 0.0, 0.0, 0.0, 0.0, 1.6776154737096543E9, 0.0, 2023-02-28 12:17:53.709
146.0, 26996.235787419773, -4408.747483342586, 15985.945282691157, -3309.3322288193976, 15014.739634363608, 7411.681999168635, -187500.02235174447, -187500.02235174447, -0.17, -0.808, -0.586, 192.0, 0.0, 0.0, 0.0, 0.0, 0.0, 0.0, 0.0, 0.0, 0.0, 1.6776154737137E9, 0.0, 2023-02-28 12:17:53.713
147.0, 26991.43016236188, -4407.808710075464, 15990.035651926477, -3306.7394264625823, 15017.533602420523, 7382.311806954362, -187500.02235174447, -187500.02235174447, -0.17, -0.808, -0.586, 192.0, 0.0, 0.0, 0.0, 0.0, 0.0, 0.0, 0.0, 0.0, 0.0, 1.6776154737185702E9, 0.0, 2023-02-28 12:17:53.718
148.0, 26945.273810061673, -4406.735826341609, 15707.911933411591, -3303.677237472205, 14873.297795450426, 7262.215883995997, -187500.02235174447, -187500.02235174447, -0.17, -0.808, -0.586, 192.0, 0.0, 0.0, 0.0, 0.0, 0.0, 0.0, 0.0, 0.0, 0.0, 1.677615473722568E9, 0.0, 2023-02-28 12:17:53.722
149.0, 26953.543955510137, -4404.2994861959805, 15663.856645090182, -3304.392493294775, 14849.448484116612, 7275.939855091555, -187500.02235174447, -187500.02235174447, -0.17, -0.802, -0.588, 192.0, 250.0, 176.0, 230.0, 240.0, 237.0, 160.0, 0.0, 0.0, 0.0, 1.6776154737266192E9, 0.0, 2023-02-28 12:17:53.726
150.0, 26994.62646181899, -4403.5395268844995, 15943.119340314788, -3306.493557273574, 14993.885456786807, 7398.114490284263, -187500.02235174447, -187500.02235174447, -0.17, -0.802, -0.588, 192.0, 0.0, 0.0, 0.0, 0.0, 0.0, 0.0, 0.0, 0.0, 0.0, 1.6776154737296546E9, 0.0, 2023-02-28 12:17:53.729
151.0, 26994.402944374437, -4401.572573372433, 16020.255210430052, -3305.1301008618, 15039.862995131374, 7400.841403107811, -187500.02235174447, -187500.02235174447, -0.17, -0.802, -0.588, 192.0, 0.0, 0.0, 0.0, 0.0, 0.0, 0.0, 0.0, 0.0, 0.0, 1.6776154737337115E9, 0.0, 2023-02-28 12:17:53.733
152.0, 26952.33696130955, -4399.404454160268, 15750.223785665488, -3302.626705482806, 14901.416289975203, 7280.320797004795, -187500.02235174447, -187500.02235174447, -0.17, -0.802, -0.588, 192.0, 0.0, 0.0, 0.0, 0.0, 0.0, 0.0, 0.0, 0.0, 0.0, 1.6776154737375932E9, 0.0, 2023-02-28 12:17:53.737
153.0, 26944.33503679455, -4400.544393127489, 15636.989848254902, -3303.7889961944816, 14841.759484023987, 7262.148828762631, -187500.02235174447, -187500.02235174447, -0.17, -0.802, -0.588, 192.0, 0.0, 0.0, 0.0, 0.0, 0.0, 0.0, 0.0, 0.0, 0.0, 1.6776154737415884E9, 0.0, 2023-02-28 12:17:53.741
154.0, 26988.09975243804, -4400.991428016595, 15891.1515344562, -3306.4265020402077, 14972.24896815407, 7382.624731376735, -187500.02235174447, -187500.02235174447, -0.17, -0.802, -0.588, 192.0, 0.0, 0.0, 0.0, 0.0, 0.0, 0.0, 0.0, 0.0, 0.0, 1.6776154737466936E9, 0.0, 2023-02-28 12:17:53.746
155.0, 27003.187179945373, -4399.471509393634, 16038.628344372315, -3305.197156095166, 15050.54712898101, 7420.5332899729365, -187500.02235174447, -187500.02235174447, -0.17, -0.802, -0.588, 192.0, 0.0, 0.0, 0.0, 0.0, 0.0, 0.0, 0.0, 0.0, 0.0, 1.6776154737507064E9, 0.0, 2023-02-28 12:17:53.750
156.0, 26963.937516681854, -4396.923410525729, 15799.46467870053, -3300.391531037275, 14931.76995894551, 7304.840660672267, -187500.02235174447, -187500.02235174447, -0.17, -0.802, -0.588, 192.0, 0.0, 0.0, 0.0, 0.0, 0.0, 0.0, 0.0, 0.0, 0.0, 1.6776154737536151E9, 0.0, 2023-02-28 12:17:53.753
157.0, 26943.798594927623, -4396.990465759095, 15624.383464382108, -3300.4362345261857, 14842.094760190817, 7252.67168911358, -187500.02235174447, -187500.02235174447, -0.17, -0.802, -0.588, 192.0, 0.0, 0.0, 0.0, 0.0, 0.0, 0.0, 0.0, 0.0, 0.0, 1.6776154737576425E9, 0.0, 2023-02-28 12:17:53.757
158.0, 26981.371877356993, -4399.829137304919, 15836.792091940892, -3305.0853973728895, 14949.584299276388, 7356.204969430562, -187500.02235174447, -187500.02235174447, -0.17, -0.802, -0.588, 192.0, 0.0, 0.0, 0.0, 0.0, 0.0, 0.0, 0.0, 0.0, 0.0, 1.6776154737616956E9, 0.0, 2023-02-28 12:17:53.761
159.0, 27019.14632548646, -4397.795128559485, 16041.668181618237, -3305.0630456284343, 15058.325536051458, 7415.70531317059, -187500.02235174447, -187500.02235174447, -0.18, -0.804, -0.594, 192.0, 250.0, 96.0, 230.0, 224.0, 237.0, 112.0, 0.0, 0.0, 0.0, 1.6776154737656124E9, 0.0, 2023-02-28 12:17:53.765
160.0, 26977.39326684395, -4398.398625659779, 15851.454836303574, -3302.0902636158785, 14960.581357548399, 7312.127329364697, -187500.02235174447, -187500.02235174447, -0.18, -0.804, -0.594, 192.0, 0.0, 0.0, 0.0, 0.0, 0.0, 0.0, 0.0, 0.0, 0.0, 1.6776154737697012E9, 0.0, 2023-02-28 12:17:53.769
161.0, 26922.832658628544, -4402.6007536173765, 15628.317371406243, -3302.0455601269678, 14838.160853166683, 7239.059476740298, -187500.02235174447, -187500.02235174447, -0.18, -0.804, -0.594, 192.0, 0.0, 0.0, 0.0, 0.0, 0.0, 0.0, 0.0, 0.0, 0.0, 1.677615473774658E9, 0.0, 2023-02-28 12:17:53.774
162.0, 26950.459414775305, -4404.835928062907, 15783.103201759244, -3305.3983217952637, 14917.24132504956, 7327.818253972323, -187500.02235174447, -187500.02235174447, -0.18, -0.804, -0.594, 192.0, 0.0, 0.0, 0.0, 0.0, 0.0, 0.0, 0.0, 0.0, 0.0, 1.6776154737788124E9, 0.0, 2023-02-28 12:17:53.778
163.0, 26984.545825069647, -4406.10997749686, 16032.503966391561, -3306.851185184859, 15046.702628934698, 7419.505109727992, -187500.02235174447, -187500.02235174447, -0.18, -0.804, -0.594, 192.0, 0.0, 0.0, 0.0, 0.0, 0.0, 0.0, 0.0, 0.0, 0.0, 1.6776154737817152E9, 0.0, 2023-02-28 12:17:53.781
164.0, 26943.306856549607, -4410.580326387922, 15905.322540440864, -3305.1748043507105, 14975.62408156682, 7339.038829688887, -187500.02235174447, -187500.02235174447, -0.18, -0.804, -0.594, 192.0, 0.0, 0.0, 0.0, 0.0, 0.0, 0.0, 0.0, 0.0, 0.0, 1.6776154737856896E9, 0.0, 2023-02-28 12:17:53.785
165.0, 26886.645184355402, -4417.576422402432, 15645.349400681187, -3304.7948246949704, 14836.752693265998, 7243.328659931262, -187500.02235174447, -187500.02235174447, -0.18, -0.804, -0.594, 192.0, 0.0, 0.0, 0.0, 0.0, 0.0, 0.0, 0.0, 0.0, 0.0, 1.6776154737897084E9, 0.0, 2023-02-28 12:17:53.789
166.0, 26897.41872518286, -4422.627916649332, 15732.722369756983, -3308.8851939302917, 14879.623339131278, 7306.695855462058, -187500.02235174447, -187500.02235174447, -0.18, -0.804, -0.594, 192.0, 0.0, 0.0, 0.0, 0.0, 0.0, 0.0, 0.0, 0.0, 0.0, 1.6776154737937253E9, 0.0, 2023-02-28 12:17:53.793
167.0, 26919.122269048963, -4429.020515563549, 16010.822774269913, -3312.8861561877916, 15021.758082122575, 7411.011446834976, -187500.02235174447, -187500.02235174447, -0.18, -0.804, -0.594, 192.0, 0.0, 0.0, 0.0, 0.0, 0.0, 0.0, 0.0, 0.0, 0.0, 1.6776154737977493E9, 0.0, 2023-02-28 12:17:53.797
168.0, 26885.08056224353, -4432.999126076595, 15955.25633755402, -3311.2097753536436, 14993.192552708693, 7354.819161274334, -187500.02235174447, -187500.02235174447, -0.18, -0.804, -0.594, 192.0, 0.0, 0.0, 0.0, 0.0, 0.0, 0.0, 0.0, 0.0, 0.0, 1.6776154738016908E9, 0.0, 2023-02-28 12:17:53.801
169.0, 26834.96795117473, -4433.937899343718, 15675.166627784567, -3308.259345085543, 14849.895519005719, 7245.452075654516, -187500.02235174447, -187500.02235174447, -0.178, -0.802, -0.594, 192.0, 250.0, 112.0, 230.0, 240.0, 237.0, 112.0, 0.0, 0.0, 0.0, 1.6776154738066888E9, 0.0, 2023-02-28 12:17:53.806
170.0, 26836.867849453432, -4438.520006957056, 15689.091764580222, -3310.3157055754314, 14851.817769028876, 7284.277055773385, -187500.02235174447, -187500.02235174447, -0.178, -0.802, -0.594, 192.0, 0.0, 0.0, 0.0, 0.0, 0.0, 0.0, 0.0, 0.0, 0.0, 1.677615473809713E9, 0.0, 2023-02-28 12:17:53.809
171.0, 26862.773521277133, -4445.136123315826, 15977.228102353587, -3314.450778299663, 14995.114802731849, 7402.115452541763, -187500.02235174447, -187500.02235174447, -0.178, -0.802, -0.594, 192.0, 0.0, 0.0, 0.0, 0.0, 0.0, 0.0, 0.0, 0.0, 0.0, 1.6776154738137891E9, 0.0, 2023-02-28 12:17:53.813
172.0, 26853.676361283826, -4446.521931472055, 15998.194038652664, -3312.684990487694, 15005.508363903567, 7381.283626709417, -187500.02235174447, -187500.02235174447, -0.178, -0.802, -0.594, 192.0, 0.0, 0.0, 0.0, 0.0, 0.0, 0.0, 0.0, 0.0, 0.0, 1.6776154738177733E9, 0.0, 2023-02-28 12:17:53.817
173.0, 26797.551130956548, -4449.941748373717, 15715.690340482039, -3311.455644542652, 14859.484417377045, 7260.964186306499, -187500.02235174447, -187500.02235174447, -0.178, -0.802, -0.594, 192.0, 0.0, 0.0, 0.0, 0.0, 0.0, 0.0, 0.0, 0.0, 0.0, 1.67761547382169E9, 0.0, 2023-02-28 12:17:53.821
174.0, 26798.333442012485, -4451.036983852027, 15656.413514186564, -3313.2661358435316, 14827.45436757259, 7264.495761930438, -187500.02235174447, -187500.02235174447, -0.178, -0.802, -0.594, 192.0, 0.0, 0.0, 0.0, 0.0, 0.0, 0.0, 0.0, 0.0, 0.0, 1.677615473825776E9, 0.0, 2023-02-28 12:17:53.825
175.0, 26834.342102329985, -4455.0826495984375, 15932.546965187428, -3316.7977114674704, 14970.080848941905, 7387.273894223439, -187500.02235174447, -187500.02235174447, -0.178, -0.802, -0.594, 192.0, 0.0, 0.0, 0.0, 0.0, 0.0, 0.0, 0.0, 0.0, 0.0, 1.6776154738297615E9, 0.0, 2023-02-28 12:17:53.829
176.0, 26837.136070386896, -4457.4519345107, 16026.848975044368, -3315.993048667079, 15017.667712887254, 7399.567353673859, -187500.02235174447, -187500.02235174447, -0.178, -0.802, -0.594, 192.0, 0.0, 0.0, 0.0, 0.0, 0.0, 0.0, 0.0, 0.0, 0.0, 1.6776154738347924E9, 0.0, 2023-02-28 12:17:53.834
177.0, 26793.93014835479, -4457.675451955253, 15761.086733470767, -3313.2661358435316, 14880.5621123984, 7277.973863836988, -187500.02235174447, -187500.02235174447, -0.178, -0.802, -0.594, 192.0, 0.0, 0.0, 0.0, 0.0, 0.0, 0.0, 0.0, 0.0, 0.0, 1.677615473837772E9, 0.0, 2023-02-28 12:17:53.837
178.0, 26773.09832252244, -4457.317824043968, 15632.56420285275, -3314.1155021328336, 14815.987922667018, 7255.3538984482175, -187500.02235174447, -187500.02235174447, -0.178, -0.802, -0.594, 192.0, 0.0, 0.0, 0.0, 0.0, 0.0, 0.0, 0.0, 0.0, 0.0, 1.6776154738417835E9, 0.0, 2023-02-28 12:17:53.841
179.0, 26812.01270961913, -4457.966024633172, 15878.634557561227, -3317.3788568233085, 14942.163520117227, 7375.360414428761, -187500.02235174447, -187500.02235174447, -0.17200000000000001, -0.802, -0.592, 192.0, 250.0, 160.0, 230.0, 240.0, 237.0, 128.0, 0.0, 0.0, 0.0, 1.6776154738458033E9, 0.0, 2023-02-28 12:17:53.845
180.0, 26824.12735511391, -4460.469420012167, 16042.539899651993, -3318.250574857065, 15025.78139612453, 7417.627563193747, -187500.02235174447, -187500.02235174447, -0.17200000000000001, -0.802, -0.592, 192.0, 0.0, 0.0, 0.0, 0.0, 0.0, 0.0, 0.0, 0.0, 0.0, 1.6776154738497903E9, 0.0, 2023-02-28 12:17:53.849
181.0, 26789.951537841745, -4456.379050776845, 15812.138117806688, -3313.5567085214507, 14909.597028445844, 7304.192460083063, -187500.02235174447, -187500.02235174447, -0.17200000000000001, -0.802, -0.592, 192.0, 0.0, 0.0, 0.0, 0.0, 0.0, 0.0, 0.0, 0.0, 0.0, 1.6776154738538828E9, 0.0, 2023-02-28 12:17:53.853
182.0, 26770.974906799187, -4452.266329797069, 15624.964609737946, -3312.2379555985876, 14812.970437165552, 7252.67168911358, -187500.02235174447, -187500.02235174447, -0.17200000000000001, -0.802, -0.592, 192.0, 0.0, 0.0, 0.0, 0.0, 0.0, 0.0, 0.0, 0.0, 0.0, 1.6776154738577547E9, 0.0, 2023-02-28 12:17:53.857
183.0, 26801.775610658602, -4452.154571074792, 15827.471414503028, -3315.5907172668835, 14916.637827949266, 7357.7248880535235, -187500.02235174447, -187500.02235174447, -0.17200000000000001, -0.802, -0.592, 192.0, 0.0, 0.0, 0.0, 0.0, 0.0, 0.0, 0.0, 0.0, 0.0, 1.6776154738627906E9, 0.0, 2023-02-28 12:17:53.862
184.0, 26829.20120110526, -4452.556902474988, 16046.116178764843, -3316.3730283228197, 15027.770701381052, 7425.6965429421125, -187500.02235174447, -187500.02235174447, -0.17200000000000001, -0.802, -0.592, 192.0, 0.0, 0.0, 0.0, 0.0, 0.0, 0.0, 0.0, 0.0, 0.0, 1.6776154738658223E9, 0.0, 2023-02-28 12:17:53.865
185.0, 26806.134200827386, -4449.919396629261, 15869.693859779103, -3312.41676955423, 14938.140206115271, 7324.979582426498, -187500.02235174447, -187500.02235174447, -0.17200000000000001, -0.802, -0.592, 192.0, 0.0, 0.0, 0.0, 0.0, 0.0, 0.0, 0.0, 0.0, 0.0, 1.6776154738697948E9, 0.0, 2023-02-28 12:17:53.869
186.0, 26769.29852596504, -4451.4393152522225, 15635.246412187387, -3312.1485486207666, 14814.400948810691, 7244.110970987198, -187500.02235174447, -187500.02235174447, -0.17200000000000001, -0.802, -0.592, 192.0, 0.0, 0.0, 0.0, 0.0, 0.0, 0.0, 0.0, 0.0, 0.0, 1.6776154738738089E9, 0.0, 2023-02-28 12:17:53.873
187.0, 26792.790209387567, -4451.081687340938, 15774.050745254845, -3315.255441100054, 14884.13839151125, 7330.567518540325, -187500.02235174447, -187500.02235174447, -0.17200000000000001, -0.802, -0.592, 192.0, 0.0, 0.0, 0.0, 0.0, 0.0, 0.0, 0.0, 0.0, 0.0, 1.6776154738778224E9, 0.0, 2023-02-28 12:17:53.877
188.0, 26826.96602665973, -4448.935919873228, 16031.542841379982, -3315.4789585446074, 15016.55012566449, 7422.097912084808, -187500.02235174447, -187500.02235174447, -0.17200000000000001, -0.802, -0.592, 192.0, 0.0, 0.0, 0.0, 0.0, 0.0, 0.0, 0.0, 0.0, 0.0, 1.6776154738818429E9, 0.0, 2023-02-28 12:17:53.881
189.0, 26798.02051759011, -4450.813466407474, 15918.15244175821, -3311.9026794317583, 14959.039087180983, 7347.018402459432, -187500.02235174447, -187500.02235174447, -0.17200000000000001, -0.8, -0.592, 192.0, 250.0, 160.0, 231.0, 0.0, 237.0, 128.0, 0.0, 0.0, 0.0, 1.6776154738858013E9, 0.0, 2023-02-28 12:17:53.885
190.0, 26765.610488129914, -4451.126390829849, 15650.95968853947, -3310.6733334867163, 14820.570030280356, 7247.53078788886, -187500.02235174447, -187500.02235174447, -0.17200000000000001, -0.8, -0.592, 192.0, 0.0, 0.0, 0.0, 0.0, 0.0, 0.0, 0.0, 0.0, 0.0, 1.6776154738907905E9, 0.0, 2023-02-28 12:17:53.890
191.0, 26783.760104627625, -4452.780419919542, 15719.959523673002, -3313.9590399216463, 14853.494149863023, 7306.8299659287895, -187500.02235174447, -187500.02235174447, -0.17200000000000001, -0.8, -0.592, 192.0, 0.0, 0.0, 0.0, 0.0, 0.0, 0.0, 0.0, 0.0, 0.0, 1.6776154738938904E9, 0.0, 2023-02-28 12:17:53.893
192.0, 26821.243980079173, -4455.060297853983, 16001.457393343138, -3315.747179478071, 14998.601674866877, 7417.336990515828, -187500.02235174447, -187500.02235174447, -0.17200000000000001, -0.8, -0.592, 192.0, 0.0, 0.0, 0.0, 0.0, 0.0, 0.0, 0.0, 0.0, 0.0, 1.6776154738977635E9, 0.0, 2023-02-28 12:17:53.897
193.0, 26800.278043780094, -4457.921321144262, 15962.922985902189, -3314.4060748107527, 14978.574511834922, 7369.236036448006, -187500.02235174447, -187500.02235174447, -0.17200000000000001, -0.8, -0.592, 192.0, 0.0, 0.0, 0.0, 0.0, 0.0, 0.0, 0.0, 0.0, 0.0, 1.6776154739017737E9, 0.0, 2023-02-28 12:17:53.901
194.0, 26751.841813545445, -4458.256597311091, 15681.760392398883, -3312.617935254328, 14832.952896708597, 7250.928253046067, -187500.02235174447, -187500.02235174447, -0.17200000000000001, -0.8, -0.592, 192.0, 0.0, 0.0, 0.0, 0.0, 0.0, 0.0, 0.0, 0.0, 0.0, 1.6776154739057653E9, 0.0, 2023-02-28 12:17:53.905
195.0, 26762.05656076152, -4456.714326943676, 15677.781781885837, -3313.8472811993697, 14828.236678628527, 7279.96316909351, -187500.02235174447, -187500.02235174447, -0.17200000000000001, -0.8, -0.592, 192.0, 0.0, 0.0, 0.0, 0.0, 0.0, 0.0, 0.0, 0.0, 0.0, 1.6776154739098892E9, 0.0, 2023-02-28 12:17:53.909
196.0, 26812.660910208335, -4456.893140899318, 15962.87828241328, -3316.4624353006407, 14977.166351934238, 7399.723815885046, -187500.02235174447, -187500.02235174447, -0.17200000000000001, -0.8, -0.592, 192.0, 0.0, 0.0, 0.0, 0.0, 0.0, 0.0, 0.0, 0.0, 0.0, 1.6776154739137957E9, 0.0, 2023-02-28 12:17:53.913
197.0, 26815.968968387722, -4457.496637999611, 16002.507925332538, -3315.009571911046, 14998.713433589153, 7384.323463955339, -187500.02235174447, -187500.02235174447, -0.17200000000000001, -0.8, -0.592, 192.0, 0.0, 0.0, 0.0, 0.0, 0.0, 0.0, 0.0, 0.0, 0.0, 1.6776154739179492E9, 0.0, 2023-02-28 12:17:53.917
198.0, 26765.29756370754, -4459.284777556036, 15723.513451041395, -3312.41676955423, 14850.74488529502, 7264.763982863901, -187500.02235174447, -187500.02235174447, -0.17200000000000001, -0.8, -0.592, 192.0, 0.0, 0.0, 0.0, 0.0, 0.0, 0.0, 0.0, 0.0, 0.0, 1.6776154739208384E9, 0.0, 2023-02-28 12:17:53.920
199.0, 26750.52306062258, -4461.765821190575, 15649.126845494135, -3314.3390195773864, 14805.773175450942, 7266.462715442505, -187500.02235174447, -187500.02235174447, -0.17200000000000001, -0.808, -0.596, 192.0, 250.0, 160.0, 230.0, 192.0, 237.0, 96.0, 0.0, 0.0, 0.0, 1.6776154739248486E9, 0.0, 2023-02-28 12:17:53.924
200.0, 26789.884482608377, -4464.224513080659, 15920.946409815124, -3318.161167879244, 14946.119778885815, 7388.235019235018, -187500.02235174447, -187500.02235174447, -0.17200000000000001, -0.808, -0.596, 192.0, 0.0, 0.0, 0.0, 0.0, 0.0, 0.0, 0.0, 0.0, 0.0, 1.677615473929888E9, 0.0, 2023-02-28 12:17:53.929
201.0, 26800.769782158113, -4465.4091555367895, 16032.436911158195, -3318.161167879244, 15005.038977270005, 7406.049359565897, -187500.02235174447, -187500.02235174447, -0.17200000000000001, -0.808, -0.596, 192.0, 0.0, 0.0, 0.0, 0.0, 0.0, 0.0, 0.0, 0.0, 0.0, 1.6776154739339142E9, 0.0, 2023-02-28 12:17:53.933
202.0, 26761.542470639048, -4464.35862354739, 15772.195550465054, -3315.031923655501, 14873.163684983694, 7286.869858130201, -187500.02235174447, -187500.02235174447, -0.17200000000000001, -0.808, -0.596, 192.0, 0.0, 0.0, 0.0, 0.0, 0.0, 0.0, 0.0, 0.0, 0.0, 1.6776154739378364E9, 0.0, 2023-02-28 12:17:53.937
203.0, 26741.761176796103, -4467.241998582125, 15629.166737695545, -3316.060103900445, 14799.291169558905, 7256.5832443932595, -187500.02235174447, -187500.02235174447, -0.17200000000000001, -0.808, -0.596, 192.0, 0.0, 0.0, 0.0, 0.0, 0.0, 0.0, 0.0, 0.0, 0.0, 1.6776154739418817E9, 0.0, 2023-02-28 12:17:53.941
204.0, 26776.920470824298, -4470.93003641725, 15867.302223122386, -3320.3516388358644, 14915.252019793037, 7377.148553985186, -187500.02235174447, -187500.02235174447, -0.17200000000000001, -0.808, -0.596, 192.0, 0.0, 0.0, 0.0, 0.0, 0.0, 0.0, 0.0, 0.0, 0.0, 1.6776154739458191E9, 0.0, 2023-02-28 12:17:53.945
205.0, 26796.433543733783, -4472.181734106748, 16043.813949085947, -3321.3351155918976, 15002.11089874636, 7427.1047028427965, -187500.02235174447, -187500.02235174447, -0.17200000000000001, -0.808, -0.596, 192.0, 0.0, 0.0, 0.0, 0.0, 0.0, 0.0, 0.0, 0.0, 0.0, 1.6776154739488263E9, 0.0, 2023-02-28 12:17:53.948
206.0, 26766.48220616367, -4468.471344527166, 15824.364522023741, -3318.4293888127077, 14891.46976369259, 7314.854242188245, -187500.02235174447, -187500.02235174447, -0.17200000000000001, -0.808, -0.596, 192.0, 0.0, 0.0, 0.0, 0.0, 0.0, 0.0, 0.0, 0.0, 0.0, 1.677615473952875E9, 0.0, 2023-02-28 12:17:53.952
207.0, 26742.38702564085, -4470.483001528144, 15626.976266738924, -3319.32345859092, 14788.919960131641, 7255.9126920596, -187500.02235174447, -187500.02235174447, -0.17200000000000001, -0.808, -0.596, 192.0, 0.0, 0.0, 0.0, 0.0, 0.0, 0.0, 0.0, 0.0, 0.0, 1.677615473957837E9, 0.0, 2023-02-28 12:17:53.957
208.0, 26770.550223654536, -4473.344024818423, 15817.055501586856, -3323.2797173595095, 14882.774935099476, 7358.082515964808, -187500.02235174447, -187500.02235174447, -0.17200000000000001, -0.808, -0.596, 192.0, 0.0, 0.0, 0.0, 0.0, 0.0, 0.0, 0.0, 0.0, 0.0, 1.6776154739619188E9, 0.0, 2023-02-28 12:17:53.961
209.0, 26804.16724731532, -4471.354719561901, 16044.395094441785, -3323.7267522486154, 15002.06619525745, 7433.653763968202, -187500.02235174447, -187500.02235174447, -0.178, -0.802, -0.596, 192.0, 250.0, 112.0, 230.0, 240.0, 237.0, 96.0, 0.0, 0.0, 0.0, 1.6776154739659677E9, 0.0, 2023-02-28 12:17:53.965
210.0, 26774.72999986768, -4470.617111994876, 15880.42269711765, -3321.0445429139786, 14917.822470405397, 7336.602489543258, -187500.02235174447, -187500.02235174447, -0.178, -0.802, -0.596, 192.0, 0.0, 0.0, 0.0, 0.0, 0.0, 0.0, 0.0, 0.0, 0.0, 1.6776154739698718E9, 0.0, 2023-02-28 12:17:53.969
211.0, 26742.454080874217, -4470.2818358280465, 15637.481586632919, -3320.1057696468556, 14791.848038655287, 7252.001136779922, -187500.02235174447, -187500.02235174447, -0.178, -0.802, -0.596, 192.0, 0.0, 0.0, 0.0, 0.0, 0.0, 0.0, 0.0, 0.0, 0.0, 1.6776154739729025E9, 0.0, 2023-02-28 12:17:53.972
212.0, 26779.133293525374, -4468.717213716175, 15761.779637548882, -3321.782150481004, 14853.874129518765, 7334.747294753468, -187500.02235174447, -187500.02235174447, -0.178, -0.802, -0.596, 192.0, 0.0, 0.0, 0.0, 0.0, 0.0, 0.0, 0.0, 0.0, 0.0, 1.677615473976936E9, 0.0, 2023-02-28 12:17:53.976
213.0, 26820.372262045417, -4469.208952094192, 16027.854803544857, -3323.0785516594115, 14986.665843327743, 7436.403028536204, -187500.02235174447, -187500.02235174447, -0.178, -0.802, -0.596, 192.0, 0.0, 0.0, 0.0, 0.0, 0.0, 0.0, 0.0, 0.0, 0.0, 1.677615473980898E9, 0.0, 2023-02-28 12:17:53.980
214.0, 26786.554072684536, -4469.812449194485, 15932.43520646515, -3320.575156280417, 14939.548366015955, 7363.156361956163, -187500.02235174447, -187500.02235174447, -0.178, -0.802, -0.596, 192.0, 0.0, 0.0, 0.0, 0.0, 0.0, 0.0, 0.0, 0.0, 0.0, 1.6776154739859219E9, 0.0, 2023-02-28 12:17:53.985
215.0, 26751.215964700696, -4467.510219515589, 15661.15208401109, -3318.384685323797, 14802.196896338093, 7257.857293827212, -187500.02235174447, -187500.02235174447, -0.178, -0.802, -0.596, 192.0, 0.0, 0.0, 0.0, 0.0, 0.0, 0.0, 0.0, 0.0, 0.0, 1.677615473989905E9, 0.0, 2023-02-28 12:17:53.989
216.0, 26761.654229361324, -4467.800792193508, 15714.148070114623, -3320.6645632582386, 14828.639010028723, 7310.093320619264, -187500.02235174447, -187500.02235174447, -0.178, -0.802, -0.596, 192.0, 0.0, 0.0, 0.0, 0.0, 0.0, 0.0, 0.0, 0.0, 0.0, 1.6776154739940224E9, 0.0, 2023-02-28 12:17:53.994
217.0, 26798.981642601688, -4468.940731160728, 15998.685777030681, -3323.167958637233, 14974.417087366235, 7423.841348152322, -187500.02235174447, -187500.02235174447, -0.178, -0.802, -0.596, 192.0, 0.0, 0.0, 0.0, 0.0, 0.0, 0.0, 0.0, 0.0, 0.0, 1.6776154739979239E9, 0.0, 2023-02-28 12:17:53.997
218.0, 26799.62984319089, -4465.811486936986, 15977.96570992061, -3320.932784191702, 14964.761133761542, 7383.898780810689, -187500.02235174447, -187500.02235174447, -0.178, -0.802, -0.596, 192.0, 0.0, 0.0, 0.0, 0.0, 0.0, 0.0, 0.0, 0.0, 0.0, 1.6776154740009265E9, 0.0, 2023-02-28 12:17:54.000
219.0, 26756.222755458686, -4466.705556715197, 15694.076203593757, -3319.32345859092, 14818.804242468386, 7266.887398587156, -187500.02235174447, -187500.02235174447, -0.176, -0.804, -0.596, 192.0, 250.0, 128.0, 230.0, 224.0, 237.0, 96.0, 0.0, 0.0, 0.0, 1.6776154740049164E9, 0.0, 2023-02-28 12:17:54.004
220.0, 26746.835022787458, -4471.444126539723, 15675.188979529023, -3322.8550342148587, 14805.862582428765, 7286.713395919013, -187500.02235174447, -187500.02235174447, -0.176, -0.804, -0.596, 192.0, 0.0, 0.0, 0.0, 0.0, 0.0, 0.0, 0.0, 0.0, 0.0, 1.677615474008917E9, 0.0, 2023-02-28 12:17:54.008
221.0, 26793.751334399145, -4473.0981556294155, 15961.20190157913, -3325.872519716325, 14951.327735343903, 7408.150423544696, -187500.02235174447, -187500.02235174447, -0.176, -0.804, -0.596, 192.0, 0.0, 0.0, 0.0, 0.0, 0.0, 0.0, 0.0, 0.0, 0.0, 1.6776154740139723E9, 0.0, 2023-02-28 12:17:54.013
222.0, 26798.35579375694, -4471.131202117348, 16015.31547490543, -3324.509063304551, 14983.737764804098, 7399.612057162769, -187500.02235174447, -187500.02235174447, -0.176, -0.804, -0.596, 192.0, 0.0, 0.0, 0.0, 0.0, 0.0, 0.0, 0.0, 0.0, 0.0, 1.6776154740179772E9, 0.0, 2023-02-28 12:17:54.017
223.0, 26749.517232122093, -4470.1030218724045, 15736.902145970125, -3320.7092667471493, 14842.072408446362, 7277.303311503329, -187500.02235174447, -187500.02235174447, -0.176, -0.804, -0.596, 192.0, 0.0, 0.0, 0.0, 0.0, 0.0, 0.0, 0.0, 0.0, 0.0, 1.6776154740229263E9, 0.0, 2023-02-28 12:17:54.022
224.0, 26743.035226230055, -4468.560751504988, 15644.634144858617, -3320.262231858043, 14793.859695656265, 7270.083698044265, -187500.02235174447, -187500.02235174447, -0.176, -0.804, -0.596, 192.0, 0.0, 0.0, 0.0, 0.0, 0.0, 0.0, 0.0, 0.0, 0.0, 1.677615474027003E9, 0.0, 2023-02-28 12:17:54.027
225.0, 26796.701764667247, -4466.638501481832, 15909.167040487177, -3322.966792937135, 14929.132453099783, 7393.554734415381, -187500.02235174447, -187500.02235174447, -0.176, -0.804, -0.596, 192.0, 0.0, 0.0, 0.0, 0.0, 0.0, 0.0, 0.0, 0.0, 0.0, 1.6776154740299664E9, 0.0, 2023-02-28 12:17:54.029
226.0, 26795.897101866856, -4470.88533292834, 16033.710960592147, -3323.1456068927773, 14994.01956725354, 7417.336990515828, -187500.02235174447, -187500.02235174447, -0.176, -0.804, -0.596, 192.0, 0.0, 0.0, 0.0, 0.0, 0.0, 0.0, 0.0, 0.0, 0.0, 1.6776154740329726E9, 0.0, 2023-02-28 12:17:54.032
227.0, 26753.7640635686, -4469.611283494387, 15779.54927439085, -3319.7034382466604, 14864.625318601766, 7297.129308835186, -187500.02235174447, -187500.02235174447, -0.176, -0.804, -0.596, 192.0, 0.0, 0.0, 0.0, 0.0, 0.0, 0.0, 0.0, 0.0, 0.0, 1.6776154740370033E9, 0.0, 2023-02-28 12:17:54.037
228.0, 26737.78256628306, -4468.672510227265, 15622.327103892221, -3319.4799208021072, 14782.236788539505, 7260.159523506109, -187500.02235174447, -187500.02235174447, -0.176, -0.804, -0.596, 192.0, 0.0, 0.0, 0.0, 0.0, 0.0, 0.0, 0.0, 0.0, 0.0, 1.6776154740419102E9, 0.0, 2023-02-28 12:17:54.041
229.0, 26780.653212148336, -4468.918379416273, 15849.689048491604, -3323.458531315152, 14896.387147472758, 7378.98139703052, -187500.02235174447, -187500.02235174447, -0.17400000000000002, -0.804, -0.594, 192.0, 250.0, 144.0, 230.0, 224.0, 237.0, 112.0, 0.0, 0.0, 0.0, 1.6776154740459256E9, 0.0, 2023-02-28 12:17:54.045
230.0, 26809.86694215142, -4469.007786394094, 16037.242536216085, -3324.3302493489086, 14995.204209709671, 7435.9112901581875, -187500.02235174447, -187500.02235174447, -0.17400000000000002, -0.804, -0.594, 192.0, 0.0, 0.0, 0.0, 0.0, 0.0, 0.0, 0.0, 0.0, 0.0, 1.677615474050053E9, 0.0, 2023-02-28 12:17:54.050
231.0, 26763.956459040222, -4471.287664328535, 15828.365484281241, -3321.3127638474425, 14889.569865413889, 7325.8513004602555, -187500.02235174447, -187500.02235174447, -0.17400000000000002, -0.804, -0.594, 192.0, 0.0, 0.0, 0.0, 0.0, 0.0, 0.0, 0.0, 0.0, 0.0, 1.6776154740540087E9, 0.0, 2023-02-28 12:17:54.054
232.0, 26737.71551104969, -4470.55005676151, 15619.644894557583, -3321.0445429139786, 14779.532227460413, 7257.7008316160245, -187500.02235174447, -187500.02235174447, -0.17400000000000002, -0.804, -0.594, 192.0, 0.0, 0.0, 0.0, 0.0, 0.0, 0.0, 0.0, 0.0, 0.0, 1.677615474056934E9, 0.0, 2023-02-28 12:17:54.056
233.0, 26771.06431377701, -4472.829934695952, 15796.514248432428, -3325.000801682568, 14869.006260515007, 7355.780286285912, -187500.02235174447, -187500.02235174447, -0.17400000000000002, -0.804, -0.594, 192.0, 0.0, 0.0, 0.0, 0.0, 0.0, 0.0, 0.0, 0.0, 0.0, 1.6776154740610476E9, 0.0, 2023-02-28 12:17:54.061
234.0, 26798.86988387941, -4473.634597496342, 16035.521451893026, -3326.028981927512, 14989.839791040396, 7439.576976248858, -187500.02235174447, -187500.02235174447, -0.17400000000000002, -0.804, -0.594, 192.0, 0.0, 0.0, 0.0, 0.0, 0.0, 0.0, 0.0, 0.0, 0.0, 1.6776154740649836E9, 0.0, 2023-02-28 12:17:54.064
235.0, 26757.787377570556, -4475.60155100841, 15884.513066352973, -3323.4361795706964, 14909.194697045648, 7352.8522077622665, -187500.02235174447, -187500.02235174447, -0.17400000000000002, -0.804, -0.594, 192.0, 0.0, 0.0, 0.0, 0.0, 0.0, 0.0, 0.0, 0.0, 0.0, 1.6776154740690465E9, 0.0, 2023-02-28 12:17:54.069
236.0, 26731.99346446913, -4473.053452140504, 15635.33581916521, -3321.0445429139786, 14781.745050161488, 7264.4510584415275, -187500.02235174447, -187500.02235174447, -0.17400000000000002, -0.804, -0.594, 192.0, 0.0, 0.0, 0.0, 0.0, 0.0, 0.0, 0.0, 0.0, 0.0, 1.677615474074014E9, 0.0, 2023-02-28 12:17:54.074
237.0, 26765.610488129914, -4471.153553861804, 15744.658201296115, -3322.9444411926797, 14838.183204911138, 7337.161283154641, -187500.02235174447, -187500.02235174447, -0.17400000000000002, -0.804, -0.594, 192.0, 0.0, 0.0, 0.0, 0.0, 0.0, 0.0, 0.0, 0.0, 0.0, 1.67761547407797E9, 0.0, 2023-02-28 12:17:54.077
238.0, 26799.428677490792, -4473.679300985254, 16017.416538884228, -3326.364258094342, 14977.859256012352, 7436.783008191945, -187500.02235174447, -187500.02235174447, -0.17400000000000002, -0.804, -0.594, 192.0, 0.0, 0.0, 0.0, 0.0, 0.0, 0.0, 0.0, 0.0, 0.0, 1.677615474081983E9, 0.0, 2023-02-28 12:17:54.081
239.0, 26774.77470335659, -4475.355681819401, 15938.090197812344, -3325.157263893755, 14936.933211914686, 7368.252559691973, -187500.02235174447, -187500.02235174447, -0.17, -0.806, -0.598, 192.0, 250.0, 176.0, 230.0, 208.0, 237.0, 80.0, 0.0, 0.0, 0.0, 1.6776154740850263E9, 0.0, 2023-02-28 12:17:54.085
240.0, 26739.257781417105, -4474.193391107726, 15662.202616000488, -3323.3467725928754, 14798.866486414254, 7258.058459527309, -187500.02235174447, -187500.02235174447, -0.17, -0.806, -0.598, 192.0, 0.0, 0.0, 0.0, 0.0, 0.0, 0.0, 0.0, 0.0, 0.0, 1.6776154740890265E9, 0.0, 2023-02-28 12:17:54.089
241.0, 26755.798072314035, -4474.2157428521805, 15700.91583739708, -3325.380781338308, 14817.93252443463, 7303.901887405144, -187500.02235174447, -187500.02235174447, -0.17, -0.806, -0.598, 192.0, 0.0, 0.0, 0.0, 0.0, 0.0, 0.0, 0.0, 0.0, 0.0, 1.6776154740929947E9, 0.0, 2023-02-28 12:17:54.092
242.0, 26793.952500099243, -4477.2108766091915, 15989.186285637175, -3328.711191262149, 14961.497779071067, 7420.577993461847, -187500.02235174447, -187500.02235174447, -0.17, -0.806, -0.598, 192.0, 0.0, 0.0, 0.0, 0.0, 0.0, 0.0, 0.0, 0.0, 0.0, 1.6776154740969973E9, 0.0, 2023-02-28 12:17:54.096
243.0, 26783.268366249606, -4477.099117886915, 15984.671233257204, -3326.8559964723586, 14957.76503774703, 7386.916266312154, -187500.02235174447, -187500.02235174447, -0.17, -0.806, -0.598, 192.0, 0.0, 0.0, 0.0, 0.0, 0.0, 0.0, 0.0, 0.0, 0.0, 1.6776154741020255E9, 0.0, 2023-02-28 12:17:54.102
244.0, 26739.43659537275, -4476.294455086524, 15701.049947863812, -3324.79963598247, 14812.255181342982, 7269.435497455061, -187500.02235174447, -187500.02235174447, -0.17, -0.806, -0.598, 192.0, 0.0, 0.0, 0.0, 0.0, 0.0, 0.0, 0.0, 0.0, 0.0, 1.677615474105996E9, 0.0, 2023-02-28 12:17:54.105
245.0, 26745.80684254251, -4472.4052515513, 15663.700182878994, -3325.0231534270233, 14791.512762488457, 7286.244009285451, -187500.02235174447, -187500.02235174447, -0.17, -0.806, -0.598, 192.0, 0.0, 0.0, 0.0, 0.0, 0.0, 0.0, 0.0, 0.0, 0.0, 1.6776154741090195E9, 0.0, 2023-02-28 12:17:54.109
246.0, 26791.471456464704, -4470.460649783689, 15944.035761837455, -3327.034810428001, 14939.101331126849, 7409.580935189836, -187500.02235174447, -187500.02235174447, -0.17, -0.806, -0.598, 192.0, 0.0, 0.0, 0.0, 0.0, 0.0, 0.0, 0.0, 0.0, 0.0, 1.6776154741130297E9, 0.0, 2023-02-28 12:17:54.113
247.0, 26788.11869479641, -4469.655986983298, 16013.348521393362, -3324.8890429602916, 14979.468581613135, 7407.524574699948, -187500.02235174447, -187500.02235174447, -0.17, -0.806, -0.598, 192.0, 0.0, 0.0, 0.0, 0.0, 0.0, 0.0, 0.0, 0.0, 0.0, 1.677615474117056E9, 0.0, 2023-02-28 12:17:54.117
248.0, 26754.501671135626, -4466.8173154374745, 15738.287954126354, -3321.0445429139786, 14842.966478224575, 7284.075890073287, -187500.02235174447, -187500.02235174447, -0.17, -0.806, -0.598, 192.0, 0.0, 0.0, 0.0, 0.0, 0.0, 0.0, 0.0, 0.0, 0.0, 1.6776154741210299E9, 0.0, 2023-02-28 12:17:54.121
249.0, 26759.44140666025, -4462.011690379583, 15629.256144673365, -3319.9940109245795, 14788.942311876097, 7268.429668954572, -187500.02235174447, -187500.02235174447, -0.168, -0.806, -0.596, 192.0, 250.0, 192.0, 230.0, 208.0, 237.0, 96.0, 0.0, 0.0, 0.0, 1.677615474125028E9, 0.0, 2023-02-28 12:17:54.125
250.0, 26790.085648308475, -4464.224513080659, 15887.776421043447, -3322.966792937135, 14922.315171040915, 7389.397309946694, -187500.02235174447, -187500.02235174447, -0.168, -0.806, -0.596, 192.0, 0.0, 0.0, 0.0, 0.0, 0.0, 0.0, 0.0, 0.0, 0.0, 1.6776154741300669E9, 0.0, 2023-02-28 12:17:54.130
251.0, 26799.048697835053, -4466.705556715197, 16028.882983789801, -3322.7209237481266, 14996.455907399168, 7419.393351005716, -187500.02235174447, -187500.02235174447, -0.168, -0.806, -0.596, 192.0, 0.0, 0.0, 0.0, 0.0, 0.0, 0.0, 0.0, 0.0, 0.0, 1.6776154741341548E9, 0.0, 2023-02-28 12:17:54.134
252.0, 26764.224679973686, -4465.07387936996, 15784.533713404384, -3318.4964440460735, 14873.878940806264, 7302.225506570996, -187500.02235174447, -187500.02235174447, -0.168, -0.806, -0.596, 192.0, 0.0, 0.0, 0.0, 0.0, 0.0, 0.0, 0.0, 0.0, 0.0, 1.6776154741371083E9, 0.0, 2023-02-28 12:17:54.137
253.0, 26751.73005482317, -4465.029175881049, 15613.095833432179, -3319.166996379733, 14784.382556007215, 7255.9126920596, -187500.02235174447, -187500.02235174447, -0.168, -0.806, -0.596, 192.0, 0.0, 0.0, 0.0, 0.0, 0.0, 0.0, 0.0, 0.0, 0.0, 1.677615474141035E9, 0.0, 2023-02-28 12:17:54.141
254.0, 26781.502578437638, -4469.432469538745, 15831.874708160723, -3323.8608627153476, 14890.687452636654, 7367.716117825046, -187500.02235174447, -187500.02235174447, -0.168, -0.806, -0.596, 192.0, 0.0, 0.0, 0.0, 0.0, 0.0, 0.0, 0.0, 0.0, 0.0, 1.6776154741450336E9, 0.0, 2023-02-28 12:17:54.145
255.0, 26800.613319946926, -4475.109812630393, 16034.515623392539, -3326.006630183057, 14992.499648630579, 7431.5079965004925, -187500.02235174447, -187500.02235174447, -0.168, -0.806, -0.596, 192.0, 0.0, 0.0, 0.0, 0.0, 0.0, 0.0, 0.0, 0.0, 0.0, 1.677615474149083E9, 0.0, 2023-02-28 12:17:54.149
0.0, 26767.040999775054, -4476.406213808801, 15839.697818720082, -3324.3526010933642, 14890.620397403289, 7327.2594603609405, -187500.02235174447, -187500.02235174447, -0.168, -0.806, -0.596, 192.0, 0.0, 0.0, 0.0, 0.0, 0.0, 0.0, 0.0, 0.0, 0.0, 1.677615474153095E9, 0.0, 2023-02-28 12:17:54.153
1.0, 26745.672732075782, -4472.31584457348, 15620.203688168967, -3322.899737703769, 14778.21347453755, 7257.2314449824635, -187500.02235174447, -187500.02235174447, -0.168, -0.806, -0.596, 192.0, 0.0, 0.0, 0.0, 0.0, 0.0, 0.0, 0.0, 0.0, 0.0, 1.6776154741580844E9, 0.0, 2023-02-28 12:17:54.158
2.0, 26772.316011466508, -4472.651120740309, 15783.147905248155, -3325.9842784386015, 14858.188016198637, 7351.60051007277, -187500.02235174447, -187500.02235174447, -0.168, -0.806, -0.596, 192.0, 0.0, 0.0, 0.0, 0.0, 0.0, 0.0, 0.0, 0.0, 0.0, 1.6776154741621232E9, 0.0, 2023-02-28 12:17:54.162
3.0, 26791.516159953615, -4477.367338820379, 16031.520489635526, -3328.04063892849, 14982.687232814698, 7438.638202981735, -187500.02235174447, -187500.02235174447, -0.168, -0.806, -0.596, 192.0, 0.0, 0.0, 0.0, 0.0, 0.0, 0.0, 0.0, 0.0, 0.0, 1.6776154741650848E9, 0.0, 2023-02-28 12:17:54.165
4.0, 26768.851491075933, -4478.484926043145, 15896.67241533666, -3325.2019673826658, 14914.827336648386, 7351.242882161485, -187500.02235174447, -187500.02235174447, -0.17200000000000001, -0.804, -0.6, 192.0, 250.0, 160.0, 230.0, 224.0, 237.0, 64.0, 0.0, 0.0, 0.0, 1.6776154741691597E9, 0.0, 2023-02-28 12:17:54.169
5.0, 26750.076025733477, -4472.740527718131, 15638.465063388952, -3322.9891446815905, 14781.20860829456, 7257.2314449824635, -187500.02235174447, -187500.02235174447, -0.17200000000000001, -0.804, -0.6, 192.0, 0.0, 0.0, 0.0, 0.0, 0.0, 0.0, 0.0, 0.0, 0.0, 1.6776154741731644E9, 0.0, 2023-02-28 12:17:54.173
6.0, 26767.19746198624, -4471.734699217642, 15732.565907545795, -3325.4031330827634, 14826.31442860537, 7327.550033038859, -187500.02235174447, -187500.02235174447, -0.17200000000000001, -0.804, -0.6, 192.0, 0.0, 0.0, 0.0, 0.0, 0.0, 0.0, 0.0, 0.0, 0.0, 1.6776154741771543E9, 0.0, 2023-02-28 12:17:54.177
7.0, 26805.195427560262, -4474.573370763465, 16009.83929751388, -3328.8229499844256, 14970.036145452994, 7431.5079965004925, -187500.02235174447, -187500.02235174447, -0.17200000000000001, -0.804, -0.6, 192.0, 0.0, 0.0, 0.0, 0.0, 0.0, 0.0, 0.0, 0.0, 0.0, 1.6776154741810973E9, 0.0, 2023-02-28 12:17:54.181
8.0, 26789.9738895862, -4476.652082997809, 15948.282593283964, -3328.04063892849, 14936.530880514489, 7373.728737083524, -187500.02235174447, -187500.02235174447, -0.17200000000000001, -0.804, -0.6, 192.0, 0.0, 0.0, 0.0, 0.0, 0.0, 0.0, 0.0, 0.0, 0.0, 1.6776154741860924E9, 0.0, 2023-02-28 12:17:54.186
9.0, 26756.133348480864, -4476.875600442362, 15670.830389360237, -3326.3419063498864, 14794.083213100817, 7263.713450874502, -187500.02235174447, -187500.02235174447, -0.17200000000000001, -0.804, -0.6, 192.0, 0.0, 0.0, 0.0, 0.0, 0.0, 0.0, 0.0, 0.0, 0.0, 1.6776154741900969E9, 0.0, 2023-02-28 12:17:54.190
10.0, 26768.739732353657, -4477.2108766091915, 15690.991662858924, -3329.091170917889, 14807.538963262912, 7302.001989126443, -187500.02235174447, -187500.02235174447, -0.17200000000000001, -0.804, -0.6, 192.0, 0.0, 0.0, 0.0, 0.0, 0.0, 0.0, 0.0, 0.0, 0.0, 1.6776154741931293E9, 0.0, 2023-02-28 12:17:54.193
11.0, 26798.534607712583, -4480.876562699862, 15977.742192476058, -3332.6898017751937, 14954.032296422994, 7418.27576378295, -187500.02235174447, -187500.02235174447, -0.17200000000000001, -0.804, -0.6, 192.0, 0.0, 0.0, 0.0, 0.0, 0.0, 0.0, 0.0, 0.0, 0.0, 1.677615474197144E9, 0.0, 2023-02-28 12:17:54.197
12.0, 26781.16730227081, -4482.21766736718, 15991.086183915877, -3330.6334412853053, 14960.111970914839, 7390.649007636191, -187500.02235174447, -187500.02235174447, -0.17200000000000001, -0.804, -0.6, 192.0, 0.0, 0.0, 0.0, 0.0, 0.0, 0.0, 0.0, 0.0, 0.0, 1.6776154742012043E9, 0.0, 2023-02-28 12:17:54.201
13.0, 26745.15864195331, -4479.110774887893, 15707.330788055753, -3327.2806796170094, 14817.060806400874, 7268.742593376946, -187500.02235174447, -187500.02235174447, -0.17200000000000001, -0.804, -0.6, 192.0, 0.0, 0.0, 0.0, 0.0, 0.0, 0.0, 0.0, 0.0, 0.0, 1.6776154742051191E9, 0.0, 2023-02-28 12:17:54.205
14.0, 26754.591078113448, -4474.014577152083, 15653.060752518268, -3326.431313327708, 14793.457364256068, 7276.744517891946, -187500.02235174447, -187500.02235174447, -0.17200000000000001, -0.806, -0.594, 192.0, 250.0, 160.0, 230.0, 208.0, 237.0, 112.0, 0.0, 0.0, 0.0, 1.677615474209118E9, 0.0, 2023-02-28 12:17:54.209
15.0, 26795.897101866856, -4473.344024818423, 15930.401197719719, -3328.9123569622466, 14935.748569458554, 7401.6907693971125, -187500.02235174447, -187500.02235174447, -0.17200000000000001, -0.806, -0.594, 192.0, 0.0, 0.0, 0.0, 0.0, 0.0, 0.0, 0.0, 0.0, 0.0, 1.6776154742141724E9, 0.0, 2023-02-28 12:17:54.214
16.0, 26795.226549533196, -4473.880466685351, 16017.014207484033, -3326.7889412389927, 14981.502590358567, 7407.278705510939, -187500.02235174447, -187500.02235174447, -0.17200000000000001, -0.806, -0.594, 192.0, 0.0, 0.0, 0.0, 0.0, 0.0, 0.0, 0.0, 0.0, 0.0, 1.677615474218187E9, 0.0, 2023-02-28 12:17:54.218
17.0, 26750.456005389216, -4471.935864917739, 15747.049837952834, -3322.7209237481266, 14844.106417191795, 7283.628855184181, -187500.02235174447, -187500.02235174447, -0.17200000000000001, -0.806, -0.594, 192.0, 0.0, 0.0, 0.0, 0.0, 0.0, 0.0, 0.0, 0.0, 0.0, 1.67761547422114E9, 0.0, 2023-02-28 12:17:54.221
18.0, 26749.651342588826, -4471.488830028633, 15625.009313226858, -3322.8550342148587, 14782.192085050594, 7259.19839849453, -187500.02235174447, -187500.02235174447, -0.17200000000000001, -0.806, -0.594, 192.0, 0.0, 0.0, 0.0, 0.0, 0.0, 0.0, 0.0, 0.0, 0.0, 1.677615474225145E9, 0.0, 2023-02-28 12:17:54.225
19.0, 26786.084686050977, -4471.108850372893, 15875.415906359662, -3325.358429593853, 14913.508583725523, 7378.266141207951, -187500.02235174447, -187500.02235174447, -0.17200000000000001, -0.806, -0.594, 192.0, 0.0, 0.0, 0.0, 0.0, 0.0, 0.0, 0.0, 0.0, 0.0, 1.677615474229131E9, 0.0, 2023-02-28 12:17:54.229
20.0, 26803.83197114849, -4472.271141084569, 16032.213393713642, -3325.6042987828614, 14995.360671920858, 7416.554679459892, -187500.02235174447, -187500.02235174447, -0.17200000000000001, -0.806, -0.594, 192.0, 0.0, 0.0, 0.0, 0.0, 0.0, 0.0, 0.0, 0.0, 0.0, 1.6776154742331612E9, 0.0, 2023-02-28 12:17:54.233
21.0, 26765.610488129914, -4475.243923097125, 15799.17410602261, -3324.3078976044535, 14872.5601878834, 7299.856221658733, -187500.02235174447, -187500.02235174447, -0.17200000000000001, -0.806, -0.594, 192.0, 0.0, 0.0, 0.0, 0.0, 0.0, 0.0, 0.0, 0.0, 0.0, 1.6776154742371633E9, 0.0, 2023-02-28 12:17:54.237
22.0, 26735.212115670696, -4479.311940587991, 15618.080272445712, -3326.1407406497888, 14771.776172134421, 7248.1342849891535, -187500.02235174447, -187500.02235174447, -0.17200000000000001, -0.806, -0.594, 192.0, 0.0, 0.0, 0.0, 0.0, 0.0, 0.0, 0.0, 0.0, 0.0, 1.677615474241186E9, 0.0, 2023-02-28 12:17:54.241
23.0, 26765.565784641003, -4483.357606334402, 15823.761024923448, -3330.5216825630287, 14870.414420415691, 7352.539283339893, -187500.02235174447, -187500.02235174447, -0.17200000000000001, -0.806, -0.594, 192.0, 0.0, 0.0, 0.0, 0.0, 0.0, 0.0, 0.0, 0.0, 0.0, 1.6776154742461655E9, 0.0, 2023-02-28 12:17:54.246
24.0, 26791.694973909256, -4484.631655768354, 16035.789672826491, -3331.549862807973, 14978.596863579378, 7421.203842306596, -187500.02235174447, -187500.02235174447, -0.17, -0.808, -0.592, 192.0, 250.0, 176.0, 230.0, 192.0, 237.0, 128.0, 0.0, 0.0, 0.0, 1.6776154742491696E9, 0.0, 2023-02-28 12:17:54.249
25.0, 26756.692142092248, -4484.788117979541, 15850.47135954754, -3328.5994325398724, 14884.116039766794, 7320.7998062133565, -187500.02235174447, -187500.02235174447, -0.17, -0.808, -0.592, 192.0, 0.0, 0.0, 0.0, 0.0, 0.0, 0.0, 0.0, 0.0, 0.0, 1.6776154742532096E9, 0.0, 2023-02-28 12:17:54.253
26.0, 26717.777754995557, -4488.69967325922, 15621.924772492024, -3329.448798829174, 14764.578910419812, 7241.8534447972115, -187500.02235174447, -187500.02235174447, -0.17, -0.808, -0.592, 192.0, 0.0, 0.0, 0.0, 0.0, 0.0, 0.0, 0.0, 0.0, 0.0, 1.6776154742572105E9, 0.0, 2023-02-28 12:17:54.257
27.0, 26747.840851287947, -4491.203068638214, 15770.519169630907, -3332.622746541828, 14838.071446188862, 7331.506291807448, -187500.02235174447, -187500.02235174447, -0.17, -0.808, -0.592, 192.0, 0.0, 0.0, 0.0, 0.0, 0.0, 0.0, 0.0, 0.0, 0.0, 1.677615474261246E9, 0.0, 2023-02-28 12:17:54.261
28.0, 26789.750372141647, -4492.343007605435, 16025.999608755066, -3333.89679597578, 14969.164427419237, 7422.8802231407435, -187500.02235174447, -187500.02235174447, -0.17, -0.808, -0.592, 192.0, 0.0, 0.0, 0.0, 0.0, 0.0, 0.0, 0.0, 0.0, 0.0, 1.6776154742651937E9, 0.0, 2023-02-28 12:17:54.265
29.0, 26758.815557815502, -4493.438243083745, 15906.86481080828, -3331.281641874509, 14911.362816257813, 7344.582062313803, -187500.02235174447, -187500.02235174447, -0.17, -0.808, -0.592, 192.0, 0.0, 0.0, 0.0, 0.0, 0.0, 0.0, 0.0, 0.0, 0.0, 1.677615474269189E9, 0.0, 2023-02-28 12:17:54.269
30.0, 26710.066403158475, -4499.093234430938, 15645.148234981089, -3331.2145866411433, 14772.893759357186, 7248.961299533999, -187500.02235174447, -187500.02235174447, -0.17, -0.808, -0.592, 192.0, 0.0, 0.0, 0.0, 0.0, 0.0, 0.0, 0.0, 0.0, 0.0, 1.6776154742741876E9, 0.0, 2023-02-28 12:17:54.274
31.0, 26727.72428127817, -4504.390597866845, 15723.245230107932, -3335.7296390211154, 14809.26004758597, 7307.701683962547, -187500.02235174447, -187500.02235174447, -0.17, -0.808, -0.592, 192.0, 0.0, 0.0, 0.0, 0.0, 0.0, 0.0, 0.0, 0.0, 0.0, 1.6776154742772202E9, 0.0, 2023-02-28 12:17:54.277
32.0, 26776.40638070183, -4505.1505571783255, 16001.54680032096, -3337.2719093885316, 14955.798084234964, 7414.319505014361, -187500.02235174447, -187500.02235174447, -0.17, -0.808, -0.592, 192.0, 0.0, 0.0, 0.0, 0.0, 0.0, 0.0, 0.0, 0.0, 0.0, 1.677615474281201E9, 0.0, 2023-02-28 12:17:54.281
33.0, 26761.050732261032, -4504.658818800309, 15955.099875342832, -3334.924976220724, 14936.843804936863, 7362.776382300423, -187500.02235174447, -187500.02235174447, -0.17, -0.808, -0.592, 192.0, 0.0, 0.0, 0.0, 0.0, 0.0, 0.0, 0.0, 0.0, 0.0, 1.6776154742852025E9, 0.0, 2023-02-28 12:17:54.285
34.0, 26727.590170811436, -4502.1554234213145, 15674.183151028534, -3332.7345052641044, 14794.463192756557, 7251.308232701806, -187500.02235174447, -187500.02235174447, -0.17, -0.8160000000000001, -0.594, 192.0, 250.0, 176.0, 230.0, 128.0, 237.0, 112.0, 0.0, 0.0, 0.0, 1.6776154742892044E9, 0.0, 2023-02-28 12:17:54.289
35.0, 26738.18489768325, -4501.104891431915, 15679.502866208895, -3334.61205179835, 14796.653663713178, 7280.991349338455, -187500.02235174447, -187500.02235174447, -0.17, -0.8160000000000001, -0.594, 192.0, 0.0, 0.0, 0.0, 0.0, 0.0, 0.0, 0.0, 0.0, 0.0, 1.6776154742932088E9, 0.0, 2023-02-28 12:17:54.293
36.0, 26784.83298836148, -4499.3391036199455, 15965.44873302564, -3336.80252275497, 14943.817549206919, 7398.22624900654, -187500.02235174447, -187500.02235174447, -0.17, -0.8160000000000001, -0.594, 192.0, 0.0, 0.0, 0.0, 0.0, 0.0, 0.0, 0.0, 0.0, 0.0, 1.6776154742972925E9, 0.0, 2023-02-28 12:17:54.297
37.0, 26785.481188950682, -4495.919286718284, 15993.053137427944, -3333.650926786772, 14964.470561083623, 7376.880333051722, -187500.02235174447, -187500.02235174447, -0.17, -0.8160000000000001, -0.594, 192.0, 0.0, 0.0, 0.0, 0.0, 0.0, 0.0, 0.0, 0.0, 0.0, 1.6776154743012686E9, 0.0, 2023-02-28 12:17:54.301
38.0, 26742.945819252232, -4492.8794494723625, 15710.68354972405, -3329.359391851353, 14825.21919312706, 7257.4102589381055, -187500.02235174447, -187500.02235174447, -0.17, -0.8160000000000001, -0.594, 192.0, 0.0, 0.0, 0.0, 0.0, 0.0, 0.0, 0.0, 0.0, 0.0, 1.6776154743042305E9, 0.0, 2023-02-28 12:17:54.304
39.0, 26735.43563311525, -4488.990245937139, 15641.706066334971, -3329.225281384621, 14788.87525664273, 7265.076907286276, -187500.02235174447, -187500.02235174447, -0.17, -0.8160000000000001, -0.594, 192.0, 0.0, 0.0, 0.0, 0.0, 0.0, 0.0, 0.0, 0.0, 0.0, 1.677615474309229E9, 0.0, 2023-02-28 12:17:54.309
40.0, 26783.82715986099, -4488.543211048032, 15915.246714979019, -3331.996897697079, 14928.372493788302, 7388.6597023796685, -187500.02235174447, -187500.02235174447, -0.17, -0.8160000000000001, -0.594, 192.0, 0.0, 0.0, 0.0, 0.0, 0.0, 0.0, 0.0, 0.0, 0.0, 1.6776154743132343E9, 0.0, 2023-02-28 12:17:54.313
41.0, 26792.45493322074, -4487.336216847446, 16017.908277262244, -3331.0134209410458, 14984.184799693205, 7400.349664729794, -187500.02235174447, -187500.02235174447, -0.17, -0.8160000000000001, -0.594, 192.0, 0.0, 0.0, 0.0, 0.0, 0.0, 0.0, 0.0, 0.0, 0.0, 1.6776154743172717E9, 0.0, 2023-02-28 12:17:54.317
42.0, 26745.359807653407, -4485.995112180128, 15754.0682857118, -3327.3700865948304, 14854.27646091896, 7274.442288213049, -187500.02235174447, -187500.02235174447, -0.17, -0.8160000000000001, -0.594, 192.0, 0.0, 0.0, 0.0, 0.0, 0.0, 0.0, 0.0, 0.0, 0.0, 1.677615474321328E9, 0.0, 2023-02-28 12:17:54.321
43.0, 26727.120784177874, -4487.872658714373, 15617.923810234524, -3328.264156373043, 14785.075460085329, 7241.406409908106, -187500.02235174447, -187500.02235174447, -0.17, -0.8160000000000001, -0.594, 192.0, 0.0, 0.0, 0.0, 0.0, 0.0, 0.0, 0.0, 0.0, 0.0, 1.677615474325266E9, 0.0, 2023-02-28 12:17:54.325
44.0, 26775.333496967974, -4490.17488839327, 15860.596699785794, -3332.0192494415346, 14908.792365645453, 7357.5460740978815, -187500.02235174447, -187500.02235174447, -0.17, -0.802, -0.588, 192.0, 250.0, 176.0, 230.0, 240.0, 237.0, 160.0, 0.0, 0.0, 0.0, 1.6776154743302648E9, 0.0, 2023-02-28 12:17:54.330
45.0, 26798.288738523574, -4492.74533900563, 16030.067626245933, -3332.0416011859897, 14996.657073099266, 7400.908458341177, -187500.02235174447, -187500.02235174447, -0.17, -0.802, -0.588, 192.0, 0.0, 0.0, 0.0, 0.0, 0.0, 0.0, 0.0, 0.0, 0.0, 1.6776154743333192E9, 0.0, 2023-02-28 12:17:54.333
46.0, 26765.789302085555, -4496.478080329666, 15806.907809604147, -3330.1640546517438, 14879.13160075326, 7284.299407517839, -187500.02235174447, -187500.02235174447, -0.17, -0.802, -0.588, 192.0, 0.0, 0.0, 0.0, 0.0, 0.0, 0.0, 0.0, 0.0, 0.0, 1.6776154743362849E9, 0.0, 2023-02-28 12:17:54.336
47.0, 26737.603752327414, -4498.93677221975, 15615.353359622164, -3330.94636570768, 14783.01909959544, 7223.681476555047, -187500.02235174447, -187500.02235174447, -0.17, -0.802, -0.588, 192.0, 0.0, 0.0, 0.0, 0.0, 0.0, 0.0, 0.0, 0.0, 0.0, 1.6776154743413095E9, 0.0, 2023-02-28 12:17:54.341
48.0, 26760.38017992737, -4499.361455364401, 15809.299446260864, -3334.4779413316182, 14880.405650187213, 7328.488806305982, -187500.02235174447, -187500.02235174447, -0.17, -0.802, -0.588, 192.0, 0.0, 0.0, 0.0, 0.0, 0.0, 0.0, 0.0, 0.0, 0.0, 1.677615474345464E9, 0.0, 2023-02-28 12:17:54.345
49.0, 26782.039020304564, -4499.517917575588, 16028.279486689507, -3335.170845409733, 14989.102183473371, 7404.37297873175, -187500.02235174447, -187500.02235174447, -0.17, -0.802, -0.588, 192.0, 0.0, 0.0, 0.0, 0.0, 0.0, 0.0, 0.0, 0.0, 0.0, 1.6776154743493311E9, 0.0, 2023-02-28 12:17:54.349
50.0, 26740.263609917594, -4500.657856542809, 15867.52574056694, -3332.0192494415346, 14902.600932431333, 7313.513137520927, -187500.02235174447, -187500.02235174447, -0.17, -0.802, -0.588, 192.0, 0.0, 0.0, 0.0, 0.0, 0.0, 0.0, 0.0, 0.0, 0.0, 1.6776154743533764E9, 0.0, 2023-02-28 12:17:54.353
51.0, 26713.66503401578, -4502.513051332599, 15678.429982475041, -3330.9240139632243, 14802.755689949476, 7255.890340315144, -187500.02235174447, -187500.02235174447, -0.17, -0.802, -0.588, 192.0, 0.0, 0.0, 0.0, 0.0, 0.0, 0.0, 0.0, 0.0, 0.0, 1.6776154743573637E9, 0.0, 2023-02-28 12:17:54.357
52.0, 26739.61540932839, -4506.357551378912, 15794.904922831647, -3333.941499464691, 14860.669059833177, 7328.958192939544, -187500.02235174447, -187500.02235174447, -0.17, -0.802, -0.588, 192.0, 0.0, 0.0, 0.0, 0.0, 0.0, 0.0, 0.0, 0.0, 0.0, 1.6776154743603704E9, 0.0, 2023-02-28 12:17:54.360
53.0, 26758.54733688204, -4509.218574669191, 15966.87924467078, -3335.573176809928, 14948.019677164517, 7387.564466901358, -187500.02235174447, -187500.02235174447, -0.17, -0.802, -0.588, 192.0, 0.0, 0.0, 0.0, 0.0, 0.0, 0.0, 0.0, 0.0, 0.0, 1.677615474364438E9, 0.0, 2023-02-28 12:17:54.364
54.0, 26739.280133161563, -4509.106815946915, 15864.351792854286, -3334.4108860982524, 14894.107269538317, 7324.845471959767, -187500.02235174447, -187500.02235174447, -0.17, -0.796, -0.586, 192.0, 250.0, 176.0, 231.0, 32.0, 237.0, 176.0, 0.0, 0.0, 0.0, 1.677615474369398E9, 0.0, 2023-02-28 12:17:54.369
55.0, 26727.34430162243, -4507.855118257417, 15683.481476721941, -3333.963851209146, 14793.971454378541, 7261.947663062533, -187500.02235174447, -187500.02235174447, -0.17, -0.796, -0.586, 192.0, 0.0, 0.0, 0.0, 0.0, 0.0, 0.0, 0.0, 0.0, 0.0, 1.6776154743733768E9, 0.0, 2023-02-28 12:17:54.373
56.0, 26753.741711824146, -4511.610211325909, 15763.143093960654, -3336.9589849661575, 14835.36688510977, 7314.451910788049, -187500.02235174447, -187500.02235174447, -0.17, -0.796, -0.586, 192.0, 0.0, 0.0, 0.0, 0.0, 0.0, 0.0, 0.0, 0.0, 0.0, 1.6776154743773623E9, 0.0, 2023-02-28 12:17:54.377
57.0, 26767.219813730695, -4512.593688081943, 15958.832616666868, -3338.7024210336713, 14939.704828227143, 7384.323463955339, -187500.02235174447, -187500.02235174447, -0.17, -0.796, -0.586, 192.0, 0.0, 0.0, 0.0, 0.0, 0.0, 0.0, 0.0, 0.0, 0.0, 1.6776154743814237E9, 0.0, 2023-02-28 12:17:54.381
58.0, 26746.097415220433, -4510.93965899225, 15904.137897984732, -3337.18250241071, 14914.670874437199, 7336.870710476722, -187500.02235174447, -187500.02235174447, -0.17, -0.796, -0.586, 192.0, 0.0, 0.0, 0.0, 0.0, 0.0, 0.0, 0.0, 0.0, 0.0, 1.677615474385374E9, 0.0, 2023-02-28 12:17:54.385
59.0, 26719.409432340795, -4511.163176436803, 15705.520296754874, -3336.266080888043, 14809.46121328607, 7260.025413039376, -187500.02235174447, -187500.02235174447, -0.17, -0.796, -0.586, 192.0, 0.0, 0.0, 0.0, 0.0, 0.0, 0.0, 0.0, 0.0, 0.0, 1.6776154743884084E9, 0.0, 2023-02-28 12:17:54.388
60.0, 26730.317083634985, -4513.063074715505, 15733.705846513016, -3338.7918280114923, 14824.325123348848, 7292.748366921946, -187500.02235174447, -187500.02235174447, -0.17, -0.796, -0.586, 192.0, 0.0, 0.0, 0.0, 0.0, 0.0, 0.0, 0.0, 0.0, 0.0, 1.6776154743923569E9, 0.0, 2023-02-28 12:17:54.392
61.0, 26766.862185819413, -4510.403217125323, 15937.218479778587, -3339.507083834062, 14933.20047059065, 7377.863809807755, -187500.02235174447, -187500.02235174447, -0.17, -0.796, -0.586, 192.0, 0.0, 0.0, 0.0, 0.0, 0.0, 0.0, 0.0, 0.0, 0.0, 1.6776154743974197E9, 0.0, 2023-02-28 12:17:54.397
62.0, 26778.01570630261, -4502.6248100548755, 15935.430340222161, -3336.489598332596, 14934.76509270252, 7355.467361863538, -187500.02235174447, -187500.02235174447, -0.17, -0.796, -0.586, 192.0, 0.0, 0.0, 0.0, 0.0, 0.0, 0.0, 0.0, 0.0, 0.0, 1.6776154744014406E9, 0.0, 2023-02-28 12:17:54.401
63.0, 26764.62701137388, -4497.059225685504, 15734.264640124398, -3332.4439325861854, 14828.5496030509, 7273.056480056821, -187500.02235174447, -187500.02235174447, -0.17, -0.796, -0.586, 192.0, 0.0, 0.0, 0.0, 0.0, 0.0, 0.0, 0.0, 0.0, 0.0, 1.677615474407426E9, 0.0, 2023-02-28 12:17:54.407
64.0, 26770.416113187806, -4494.198202395225, 15709.990645645936, -3331.683973274705, 14816.814937211864, 7286.44517498555, -187500.02235174447, -187500.02235174447, -0.17, -0.802, -0.582, 192.0, 250.0, 176.0, 230.0, 240.0, 237.0, 208.0, 0.0, 0.0, 0.0, 1.6776154744103625E9, 0.0, 2023-02-28 12:17:54.410
65.0, 26817.466535266227, -4491.404234338312, 15907.468307908573, -3332.5333395640064, 14926.964333887618, 7372.074707993831, -187500.02235174447, -187500.02235174447, -0.17, -0.802, -0.582, 192.0, 0.0, 0.0, 0.0, 0.0, 0.0, 0.0, 0.0, 0.0, 0.0, 1.677615474413363E9, 0.0, 2023-02-28 12:17:54.413
66.0, 26820.148744600865, -4484.005806923605, 15955.904538143222, -3329.001763940068, 14961.386020348791, 7372.767612071945, -187500.02235174447, -187500.02235174447, -0.17, -0.802, -0.582, 192.0, 0.0, 0.0, 0.0, 0.0, 0.0, 0.0, 0.0, 0.0, 0.0, 1.6776154744164228E9, 0.0, 2023-02-28 12:17:54.416
67.0, 26764.7164183517, -4479.624865010365, 15762.941928260558, -3325.9842784386015, 14864.737077324044, 7287.853334886234, -187500.02235174447, -187500.02235174447, -0.17, -0.802, -0.582, 192.0, 0.0, 0.0, 0.0, 0.0, 0.0, 0.0, 0.0, 0.0, 0.0, 1.6776154744203968E9, 0.0, 2023-02-28 12:17:54.420
68.0, 26760.469586905194, -4479.803678966007, 15687.035404090335, -3326.9230517057244, 14828.348437350804, 7272.520038189893, -187500.02235174447, -187500.02235174447, -0.17, -0.802, -0.582, 192.0, 0.0, 0.0, 0.0, 0.0, 0.0, 0.0, 0.0, 0.0, 0.0, 1.677615474425412E9, 0.0, 2023-02-28 12:17:54.425
69.0, 26811.275102052106, -4480.675396999764, 15868.464513834062, -3331.058124429956, 14924.103310597338, 7347.867768748733, -187500.02235174447, -187500.02235174447, -0.17, -0.802, -0.582, 192.0, 0.0, 0.0, 0.0, 0.0, 0.0, 0.0, 0.0, 0.0, 0.0, 1.6776154744294212E9, 0.0, 2023-02-28 12:17:54.429
70.0, 26851.329428116016, -4482.463536556189, 15970.232006339074, -3332.555691308462, 14978.842732768386, 7366.196199202085, -187500.02235174447, -187500.02235174447, -0.17, -0.802, -0.582, 192.0, 0.0, 0.0, 0.0, 0.0, 0.0, 0.0, 0.0, 0.0, 0.0, 1.6776154744333925E9, 0.0, 2023-02-28 12:17:54.433
71.0, 26799.786305402078, -4481.815335966985, 15799.308216489342, -3329.337040106898, 14890.32982472537, 7286.623988941192, -187500.02235174447, -187500.02235174447, -0.17, -0.802, -0.582, 192.0, 0.0, 0.0, 0.0, 0.0, 0.0, 0.0, 0.0, 0.0, 0.0, 1.677615474437449E9, 0.0, 2023-02-28 12:17:54.437
72.0, 26778.172168513796, -4480.429527810756, 15677.714726652472, -3328.733543006604, 14823.431053570635, 7254.951567048021, -187500.02235174447, -187500.02235174447, -0.17, -0.802, -0.582, 192.0, 0.0, 0.0, 0.0, 0.0, 0.0, 0.0, 0.0, 0.0, 0.0, 1.677615474441417E9, 0.0, 2023-02-28 12:17:54.441
73.0, 26823.63561673589, -4482.016501667083, 15829.393664526186, -3331.6616215302497, 14904.18790628766, 7324.867823704222, -187500.02235174447, -187500.02235174447, -0.17, -0.802, -0.582, 192.0, 0.0, 0.0, 0.0, 0.0, 0.0, 0.0, 0.0, 0.0, 0.0, 1.677615474444414E9, 0.0, 2023-02-28 12:17:54.444
74.0, 26825.043776636576, -4483.804641223507, 15973.897692429746, -3333.293298875487, 14976.316985644937, 7366.196199202085, -187500.02235174447, -187500.02235174447, -0.17, -0.804, -0.588, 192.0, 250.0, 176.0, 230.0, 224.0, 237.0, 160.0, 0.0, 0.0, 0.0, 1.6776154744484391E9, 0.0, 2023-02-28 12:17:54.448
75.0, 26803.228474048195, -4491.381882593856, 15836.970905896535, -3331.7957319969814, 14899.80696437442, 7300.794994925856, -187500.02235174447, -187500.02235174447, -0.17, -0.804, -0.588, 192.0, 0.0, 0.0, 0.0, 0.0, 0.0, 0.0, 0.0, 0.0, 0.0, 1.6776154744524434E9, 0.0, 2023-02-28 12:17:54.452
76.0, 26785.838816861968, -4496.612190796398, 15677.938244097024, -3331.393400596786, 14814.289190088415, 7249.050706511821, -187500.02235174447, -187500.02235174447, -0.17, -0.804, -0.588, 192.0, 0.0, 0.0, 0.0, 0.0, 0.0, 0.0, 0.0, 0.0, 0.0, 1.6776154744574168E9, 0.0, 2023-02-28 12:17:54.457
77.0, 26787.91752909631, -4498.087405930449, 15791.283940229887, -3333.9191477202357, 14870.190902971139, 7309.556878752337, -187500.02235174447, -187500.02235174447, -0.17, -0.804, -0.588, 192.0, 0.0, 0.0, 0.0, 0.0, 0.0, 0.0, 0.0, 0.0, 0.0, 1.6776154744614444E9, 0.0, 2023-02-28 12:17:54.461
78.0, 26807.0282706056, -4497.2827431300575, 15969.472047027595, -3335.5955285543837, 14965.163465161737, 7366.486771880004, -187500.02235174447, -187500.02235174447, -0.17, -0.804, -0.588, 192.0, 0.0, 0.0, 0.0, 0.0, 0.0, 0.0, 0.0, 0.0, 0.0, 1.6776154744654226E9, 0.0, 2023-02-28 12:17:54.465
79.0, 26801.194465302764, -4498.713254775197, 15874.790057514914, -3332.958022708657, 14915.274371537493, 7313.8260619433, -187500.02235174447, -187500.02235174447, -0.17, -0.804, -0.588, 192.0, 0.0, 0.0, 0.0, 0.0, 0.0, 0.0, 0.0, 0.0, 0.0, 1.677615474468472E9, 0.0, 2023-02-28 12:17:54.468
80.0, 26764.694066607248, -4501.641333298842, 15687.169514557067, -3333.606223297861, 14812.366940065258, 7240.601747107715, -187500.02235174447, -187500.02235174447, -0.17, -0.804, -0.588, 192.0, 0.0, 0.0, 0.0, 0.0, 0.0, 0.0, 0.0, 0.0, 0.0, 1.67761547447246E9, 0.0, 2023-02-28 12:17:54.472
81.0, 26760.9166217943, -4500.903725731817, 15754.895300256647, -3335.7966942544813, 14843.324106135859, 7282.623026683692, -187500.02235174447, -187500.02235174447, -0.17, -0.804, -0.588, 192.0, 0.0, 0.0, 0.0, 0.0, 0.0, 0.0, 0.0, 0.0, 0.0, 1.6776154744764595E9, 0.0, 2023-02-28 12:17:54.476
82.0, 26826.92132317082, -4507.475138601678, 15952.663535197204, -3338.814179755948, 14946.455055052646, 7350.706440294557, -187500.02235174447, -187500.02235174447, -0.17, -0.804, -0.588, 192.0, 0.0, 0.0, 0.0, 0.0, 0.0, 0.0, 0.0, 0.0, 0.0, 1.677615474481438E9, 0.0, 2023-02-28 12:17:54.481
83.0, 26801.574444958504, -4512.861909015406, 15907.714177097581, -3338.255386144565, 14923.544516985956, 7312.596715998258, -187500.02235174447, -187500.02235174447, -0.17, -0.804, -0.588, 192.0, 0.0, 0.0, 0.0, 0.0, 0.0, 0.0, 0.0, 0.0, 0.0, 1.6776154744854667E9, 0.0, 2023-02-28 12:17:54.485
84.0, 26732.775775525068, -4510.626734569876, 15705.25207582141, -3336.489598332596, 14815.07150114435, 7230.655220825103, -187500.02235174447, -187500.02235174447, -0.17, -0.804, -0.59, 192.0, 250.0, 176.0, 230.0, 224.0, 237.0, 144.0, 0.0, 0.0, 0.0, 1.677615474489437E9, 0.0, 2023-02-28 12:17:54.489
85.0, 26732.48520284715, -4506.17873742327, 15721.725311484972, -3336.9589849661575, 14822.738149492521, 7265.278072986373, -187500.02235174447, -187500.02235174447, -0.17, -0.804, -0.59, 192.0, 0.0, 0.0, 0.0, 0.0, 0.0, 0.0, 0.0, 0.0, 0.0, 1.6776154744924572E9, 0.0, 2023-02-28 12:17:54.492
86.0, 26774.864110334413, -4504.547060078033, 15924.880316839257, -3337.9424617221907, 14927.590182732367, 7354.21566417404, -187500.02235174447, -187500.02235174447, -0.17, -0.804, -0.59, 192.0, 0.0, 0.0, 0.0, 0.0, 0.0, 0.0, 0.0, 0.0, 0.0, 1.6776154744964476E9, 0.0, 2023-02-28 12:17:54.496
87.0, 26765.521081152092, -4504.055321700015, 15936.838500122847, -3335.9978599545793, 14927.657237965732, 7340.73756226749, -187500.02235174447, -187500.02235174447, -0.17, -0.804, -0.59, 192.0, 0.0, 0.0, 0.0, 0.0, 0.0, 0.0, 0.0, 0.0, 0.0, 1.6776154745005379E9, 0.0, 2023-02-28 12:17:54.500
88.0, 26748.757272810613, -4497.416853596789, 15734.599916291229, -3332.4439325861854, 14823.006370425985, 7252.917558302589, -187500.02235174447, -187500.02235174447, -0.17, -0.804, -0.59, 192.0, 0.0, 0.0, 0.0, 0.0, 0.0, 0.0, 0.0, 0.0, 0.0, 1.6776154745044875E9, 0.0, 2023-02-28 12:17:54.504
89.0, 26768.739732353657, -4492.454766327711, 15695.596122216717, -3331.549862807973, 14806.868410929254, 7255.9126920596, -187500.02235174447, -187500.02235174447, -0.17, -0.804, -0.59, 192.0, 0.0, 0.0, 0.0, 0.0, 0.0, 0.0, 0.0, 0.0, 0.0, 1.6776154745084915E9, 0.0, 2023-02-28 12:17:54.508
90.0, 26822.78625044659, -4492.521821561078, 15892.850267034803, -3334.6344035428056, 14908.702958667633, 7334.4790738200045, -187500.02235174447, -187500.02235174447, -0.17, -0.804, -0.59, 192.0, 0.0, 0.0, 0.0, 0.0, 0.0, 0.0, 0.0, 0.0, 0.0, 1.6776154745135367E9, 0.0, 2023-02-28 12:17:54.513
91.0, 26828.195372604772, -4489.392577337334, 15955.166930576199, -3332.287470374998, 14948.28789809798, 7334.054390675354, -187500.02235174447, -187500.02235174447, -0.17, -0.804, -0.59, 192.0, 0.0, 0.0, 0.0, 0.0, 0.0, 0.0, 0.0, 0.0, 0.0, 1.6776154745176308E9, 0.0, 2023-02-28 12:17:54.517
92.0, 26772.651287633336, -4485.235152868647, 15763.612480594216, -3327.70536276166, 14855.952841753107, 7247.128456488665, -187500.02235174447, -187500.02235174447, -0.17, -0.804, -0.59, 192.0, 0.0, 0.0, 0.0, 0.0, 0.0, 0.0, 0.0, 0.0, 0.0, 1.6776154745205932E9, 0.0, 2023-02-28 12:17:54.520
93.0, 26752.646476345835, -4481.837687711441, 15675.0995725512, -3326.5430720499844, 14810.534097019923, 7235.214976693986, -187500.02235174447, -187500.02235174447, -0.17, -0.804, -0.59, 192.0, 0.0, 0.0, 0.0, 0.0, 0.0, 0.0, 0.0, 0.0, 0.0, 1.6776154745245788E9, 0.0, 2023-02-28 12:17:54.524
94.0, 26787.202273273742, -4479.580161521454, 15851.208967114564, -3328.1523976507665, 14900.768089385998, 7320.486881790982, -187500.02235174447, -187500.02235174447, -0.17400000000000002, -0.804, -0.59, 192.0, 250.0, 144.0, 230.0, 224.0, 237.0, 144.0, 0.0, 0.0, 0.0, 1.6776154745285087E9, 0.0, 2023-02-28 12:17:54.528
95.0, 26837.22547736472, -4477.926132431761, 15962.386544035262, -3327.973583695124, 14958.659107525244, 7347.554844326359, -187500.02235174447, -187500.02235174447, -0.17400000000000002, -0.804, -0.59, 192.0, 0.0, 0.0, 0.0, 0.0, 0.0, 0.0, 0.0, 0.0, 0.0, 1.6776154745325704E9, 0.0, 2023-02-28 12:17:54.532
96.0, 26844.422739079328, -4475.780364964052, 15796.69306238807, -3325.1796156382106, 14873.230740217059, 7263.892264830144, -187500.02235174447, -187500.02235174447, -0.17400000000000002, -0.804, -0.59, 192.0, 0.0, 0.0, 0.0, 0.0, 0.0, 0.0, 0.0, 0.0, 0.0, 1.677615474536544E9, 0.0, 2023-02-28 12:17:54.536
97.0, 26783.670697649803, -4473.83576319644, 15664.415438701564, -3325.2690226160316, 14801.034605626417, 7226.631906823148, -187500.02235174447, -187500.02235174447, -0.17400000000000002, -0.804, -0.59, 192.0, 0.0, 0.0, 0.0, 0.0, 0.0, 0.0, 0.0, 0.0, 0.0, 1.6776154745415356E9, 0.0, 2023-02-28 12:17:54.541
98.0, 26798.936939112777, -4472.248789340114, 15807.287789259886, -3327.548900550473, 14874.549493139923, 7299.878573403189, -187500.02235174447, -187500.02235174447, -0.17400000000000002, -0.804, -0.59, 192.0, 0.0, 0.0, 0.0, 0.0, 0.0, 0.0, 0.0, 0.0, 0.0, 1.6776154745455484E9, 0.0, 2023-02-28 12:17:54.545
99.0, 26854.279858384118, -4469.588931749932, 15960.441942267651, -3327.8618249728474, 14957.876796469307, 7343.196254157574, -187500.02235174447, -187500.02235174447, -0.17400000000000002, -0.804, -0.59, 192.0, 0.0, 0.0, 0.0, 0.0, 0.0, 0.0, 0.0, 0.0, 0.0, 1.6776154745485992E9, 0.0, 2023-02-28 12:17:54.548
100.0, 26821.35573880145, -4469.588931749932, 15831.56178373835, -3325.380781338308, 14893.6155311603, 7267.468543942994, -187500.02235174447, -187500.02235174447, -0.17400000000000002, -0.804, -0.59, 192.0, 0.0, 0.0, 0.0, 0.0, 0.0, 0.0, 0.0, 0.0, 0.0, 1.6776154745525963E9, 0.0, 2023-02-28 12:17:54.552
101.0, 26755.19457521374, -4468.35958580489, 15660.86151133317, -3324.062028415445, 14805.63906498421, 7211.700941527002, -187500.02235174447, -187500.02235174447, -0.17400000000000002, -0.804, -0.59, 192.0, 0.0, 0.0, 0.0, 0.0, 0.0, 0.0, 0.0, 0.0, 0.0, 1.677615474556554E9, 0.0, 2023-02-28 12:17:54.556
102.0, 26771.556052155025, -4469.11954511637, 15764.104218972234, -3325.9619266941463, 14855.595213841823, 7274.844619613245, -187500.02235174447, -187500.02235174447, -0.17400000000000002, -0.804, -0.59, 192.0, 0.0, 0.0, 0.0, 0.0, 0.0, 0.0, 0.0, 0.0, 0.0, 1.6776154745606377E9, 0.0, 2023-02-28 12:17:54.560
103.0, 26815.20900907624, -4470.2818358280465, 15947.142654316744, -3327.548900550473, 14952.355915588847, 7335.26138487594, -187500.02235174447, -187500.02235174447, -0.17400000000000002, -0.804, -0.59, 192.0, 0.0, 0.0, 0.0, 0.0, 0.0, 0.0, 0.0, 0.0, 0.0, 1.6776154745645692E9, 0.0, 2023-02-28 12:17:54.564
104.0, 26827.54717201557, -4470.997091650616, 15862.541301553405, -3325.3137261049424, 14908.43473773417, 7284.120593562197, -187500.02235174447, -187500.02235174447, -0.17200000000000001, -0.804, -0.594, 192.0, 250.0, 160.0, 230.0, 224.0, 237.0, 112.0, 0.0, 0.0, 0.0, 1.6776154745696275E9, 0.0, 2023-02-28 12:17:54.569
105.0, 26809.06227935103, -4473.880466685351, 15669.377525970642, -3324.9784499381126, 14803.962684150063, 7211.186851404531, -187500.02235174447, -187500.02235174447, -0.17200000000000001, -0.804, -0.594, 192.0, 0.0, 0.0, 0.0, 0.0, 0.0, 0.0, 0.0, 0.0, 0.0, 1.67761547457355E9, 0.0, 2023-02-28 12:17:54.573
106.0, 26780.362639470415, -4481.994149922628, 15726.888564454148, -3328.8676534733363, 14827.476719317046, 7255.063325770298, -187500.02235174447, -187500.02235174447, -0.17200000000000001, -0.804, -0.594, 192.0, 0.0, 0.0, 0.0, 0.0, 0.0, 0.0, 0.0, 0.0, 0.0, 1.6776154745765371E9, 0.0, 2023-02-28 12:17:54.576
107.0, 26796.25472977814, -4479.155478376803, 15928.814223863392, -3330.655793029761, 14929.691246711165, 7338.904719222155, -187500.02235174447, -187500.02235174447, -0.17200000000000001, -0.804, -0.594, 192.0, 0.0, 0.0, 0.0, 0.0, 0.0, 0.0, 0.0, 0.0, 0.0, 1.6776154745805678E9, 0.0, 2023-02-28 12:17:54.580
108.0, 26801.64150019187, -4476.3838620643455, 15898.415851404174, -3329.091170917889, 14907.048929577939, 7301.8455269152555, -187500.02235174447, -187500.02235174447, -0.17200000000000001, -0.804, -0.594, 192.0, 0.0, 0.0, 0.0, 0.0, 0.0, 0.0, 0.0, 0.0, 0.0, 1.6776154745846217E9, 0.0, 2023-02-28 12:17:54.584
109.0, 26792.00789833163, -4476.205048108703, 15695.573770472261, -3327.258327872554, 14798.97824513653, 7211.410368849083, -187500.02235174447, -187500.02235174447, -0.17200000000000001, -0.804, -0.594, 192.0, 0.0, 0.0, 0.0, 0.0, 0.0, 0.0, 0.0, 0.0, 0.0, 1.6776154745887277E9, 0.0, 2023-02-28 12:17:54.588
110.0, 26788.185750029774, -4481.100080144415, 15700.53585774134, -3329.0464674289788, 14802.129841104728, 7231.795159792324, -187500.02235174447, -187500.02235174447, -0.17200000000000001, -0.804, -0.594, 192.0, 0.0, 0.0, 0.0, 0.0, 0.0, 0.0, 0.0, 0.0, 0.0, 1.677615474592632E9, 0.0, 2023-02-28 12:17:54.592
111.0, 26776.62989814638, -4480.206010366203, 15905.031967762945, -3330.0746476739228, 14908.412385989714, 7320.39747481316, -187500.02235174447, -187500.02235174447, -0.17200000000000001, -0.804, -0.594, 192.0, 0.0, 0.0, 0.0, 0.0, 0.0, 0.0, 0.0, 0.0, 0.0, 1.6776154745976243E9, 0.0, 2023-02-28 12:17:54.597
112.0, 26780.474398192695, -4476.69678648672, 15926.288476739941, -3328.375915095319, 14921.957543129629, 7304.68419846108, -187500.02235174447, -187500.02235174447, -0.17200000000000001, -0.804, -0.594, 192.0, 0.0, 0.0, 0.0, 0.0, 0.0, 0.0, 0.0, 0.0, 0.0, 1.6776154746016395E9, 0.0, 2023-02-28 12:17:54.601
113.0, 26757.854432803924, -4476.070937641971, 15724.318113841788, -3326.2748511165205, 14818.223097112548, 7216.417159607072, -187500.02235174447, -187500.02235174447, -0.17200000000000001, -0.804, -0.594, 192.0, 0.0, 0.0, 0.0, 0.0, 0.0, 0.0, 0.0, 0.0, 0.0, 1.6776154746046052E9, 0.0, 2023-02-28 12:17:54.604
114.0, 26767.0186480306, -4473.522838774066, 15674.518427195362, -3326.1407406497888, 14797.100698602284, 7217.646505552114, -187500.02235174447, -187500.02235174447, -0.168, -0.802, -0.588, 192.0, 250.0, 192.0, 230.0, 240.0, 237.0, 160.0, 0.0, 0.0, 0.0, 1.677615474608644E9, 0.0, 2023-02-28 12:17:54.608
115.0, 26825.647273736868, -4472.606417251399, 15866.89989172219, -3327.973583695124, 14898.085880051362, 7303.58896298277, -187500.02235174447, -187500.02235174447, -0.168, -0.802, -0.588, 192.0, 0.0, 0.0, 0.0, 0.0, 0.0, 0.0, 0.0, 0.0, 0.0, 1.6776154746126204E9, 0.0, 2023-02-28 12:17:54.612
116.0, 26838.968913432233, -4466.683204970742, 15940.39242749124, -3325.2019673826658, 14942.677610239698, 7313.244916587462, -187500.02235174447, -187500.02235174447, -0.168, -0.802, -0.588, 192.0, 0.0, 0.0, 0.0, 0.0, 0.0, 0.0, 0.0, 0.0, 0.0, 1.6776154746166825E9, 0.0, 2023-02-28 12:17:54.616
117.0, 26793.796037888056, -4460.02238512306, 15750.894337999147, -3319.7481417355707, 14847.995620727019, 7230.185834191541, -187500.02235174447, -187500.02235174447, -0.168, -0.802, -0.588, 192.0, 0.0, 0.0, 0.0, 0.0, 0.0, 0.0, 0.0, 0.0, 0.0, 1.6776154746206648E9, 0.0, 2023-02-28 12:17:54.620
118.0, 26769.276174220584, -4454.635614709332, 15648.18807222701, -3317.8258917124144, 14796.07251835734, 7209.465767081472, -187500.02235174447, -187500.02235174447, -0.168, -0.802, -0.588, 192.0, 0.0, 0.0, 0.0, 0.0, 0.0, 0.0, 0.0, 0.0, 0.0, 1.6776154746246157E9, 0.0, 2023-02-28 12:17:54.624
119.0, 26815.432526520795, -4453.540379231022, 15819.983580110502, -3320.932784191702, 14885.680661878665, 7291.094337832254, -187500.02235174447, -187500.02235174447, -0.168, -0.802, -0.588, 192.0, 0.0, 0.0, 0.0, 0.0, 0.0, 0.0, 0.0, 0.0, 0.0, 1.6776154746297095E9, 0.0, 2023-02-28 12:17:54.629
120.0, 26861.968858476743, -4454.188579820226, 15944.460444982105, -3321.9833161811016, 14952.422970822212, 7320.598640513259, -187500.02235174447, -187500.02235174447, -0.168, -0.802, -0.588, 192.0, 0.0, 0.0, 0.0, 0.0, 0.0, 0.0, 0.0, 0.0, 0.0, 1.6776154746326396E9, 0.0, 2023-02-28 12:17:54.632
121.0, 26818.293549811075, -4453.920358886762, 15787.394736694663, -3319.2116998686433, 14868.51452213699, 7246.05557275481, -187500.02235174447, -187500.02235174447, -0.168, -0.802, -0.588, 192.0, 0.0, 0.0, 0.0, 0.0, 0.0, 0.0, 0.0, 0.0, 0.0, 1.6776154746367E9, 0.0, 2023-02-28 12:17:54.636
122.0, 26789.59390993046, -4453.003937364094, 15646.489339648408, -3318.94347893518, 14789.389346765203, 7204.123700156653, -187500.02235174447, -187500.02235174447, -0.168, -0.802, -0.588, 192.0, 0.0, 0.0, 0.0, 0.0, 0.0, 0.0, 0.0, 0.0, 0.0, 1.6776154746406074E9, 0.0, 2023-02-28 12:17:54.640
123.0, 26828.46359353824, -4447.952443117195, 15782.611463381227, -3320.0387144134897, 14861.317260422382, 7282.600674939236, -187500.02235174447, -187500.02235174447, -0.168, -0.802, -0.588, 192.0, 0.0, 0.0, 0.0, 0.0, 0.0, 0.0, 0.0, 0.0, 0.0, 1.6776154746446128E9, 0.0, 2023-02-28 12:17:54.644
124.0, 26853.45284383927, -4442.565672703466, 15944.795721148936, -3318.250574857065, 14949.941927187674, 7342.950384968565, -187500.02235174447, -187500.02235174447, -0.17400000000000002, -0.802, -0.598, 192.0, 250.0, 144.0, 230.0, 240.0, 237.0, 80.0, 0.0, 0.0, 0.0, 1.6776154746486745E9, 0.0, 2023-02-28 12:17:54.648
125.0, 26823.45680278025, -4441.135161058326, 15826.957324380557, -3314.964868422135, 14890.575693914378, 7273.659977157114, -187500.02235174447, -187500.02235174447, -0.17400000000000002, -0.802, -0.598, 192.0, 0.0, 0.0, 0.0, 0.0, 0.0, 0.0, 0.0, 0.0, 0.0, 1.6776154746526508E9, 0.0, 2023-02-28 12:17:54.652
126.0, 26805.083668837986, -4443.169169803759, 15651.920813551047, -3314.651943999761, 14795.200800323582, 7210.292781626318, -187500.02235174447, -187500.02235174447, -0.17400000000000002, -0.802, -0.598, 192.0, 0.0, 0.0, 0.0, 0.0, 0.0, 0.0, 0.0, 0.0, 0.0, 1.6776154746576464E9, 0.0, 2023-02-28 12:17:54.657
127.0, 26812.01270961913, -4445.270233782558, 15748.435646109063, -3317.624726012317, 14840.239565401027, 7269.72607013298, -187500.02235174447, -187500.02235174447, -0.17400000000000002, -0.802, -0.598, 192.0, 0.0, 0.0, 0.0, 0.0, 0.0, 0.0, 0.0, 0.0, 0.0, 1.677615474660638E9, 0.0, 2023-02-28 12:17:54.660
128.0, 26832.17398311782, -4441.090457569416, 15940.794758891436, -3317.267098101032, 14935.927383414197, 7346.325498381317, -187500.02235174447, -187500.02235174447, -0.17400000000000002, -0.802, -0.598, 192.0, 0.0, 0.0, 0.0, 0.0, 0.0, 0.0, 0.0, 0.0, 0.0, 1.6776154746646376E9, 0.0, 2023-02-28 12:17:54.664
129.0, 26840.064148910544, -4443.124466314848, 15868.464513834062, -3315.344848077875, 14903.249133020538, 7297.308122790829, -187500.02235174447, -187500.02235174447, -0.17400000000000002, -0.802, -0.598, 192.0, 0.0, 0.0, 0.0, 0.0, 0.0, 0.0, 0.0, 0.0, 0.0, 1.6776154746686907E9, 0.0, 2023-02-28 12:17:54.668
130.0, 26828.664759238334, -4442.610376192377, 15668.639918403616, -3314.026095155012, 14797.614788724755, 7227.4142178790835, -187500.02235174447, -187500.02235174447, -0.17400000000000002, -0.802, -0.598, 192.0, 0.0, 0.0, 0.0, 0.0, 0.0, 0.0, 0.0, 0.0, 0.0, 1.6776154746726732E9, 0.0, 2023-02-28 12:17:54.672
131.0, 26810.55984622954, -4443.504445970589, 15715.82445094877, -3316.931821934202, 14819.474794802047, 7268.519075932393, -187500.02235174447, -187500.02235174447, -0.17400000000000002, -0.802, -0.598, 192.0, 0.0, 0.0, 0.0, 0.0, 0.0, 0.0, 0.0, 0.0, 0.0, 1.6776154746767662E9, 0.0, 2023-02-28 12:17:54.676
132.0, 26837.89602969838, -4444.823198893452, 15923.360398216297, -3319.4352173131965, 14927.009037376529, 7350.594681572281, -187500.02235174447, -187500.02235174447, -0.17400000000000002, -0.802, -0.598, 192.0, 0.0, 0.0, 0.0, 0.0, 0.0, 0.0, 0.0, 0.0, 0.0, 1.6776154746807003E9, 0.0, 2023-02-28 12:17:54.680
133.0, 26860.828919509524, -4443.884425626329, 15903.735566584537, -3317.7588364790486, 14920.929362884684, 7316.865899189223, -187500.02235174447, -187500.02235174447, -0.17400000000000002, -0.802, -0.598, 192.0, 0.0, 0.0, 0.0, 0.0, 0.0, 0.0, 0.0, 0.0, 0.0, 1.6776154746857705E9, 0.0, 2023-02-28 12:17:54.685
134.0, 26811.386860774383, -4442.409210492278, 15695.126735583155, -3315.8142347114367, 14814.557411021879, 7227.056589967799, -187500.02235174447, -187500.02235174447, -0.17400000000000002, -0.802, -0.598, 192.0, 0.0, 0.0, 0.0, 0.0, 0.0, 0.0, 0.0, 0.0, 0.0, 1.6776154746888266E9, 0.0, 2023-02-28 12:17:54.688
135.0, 26805.128372326897, -4445.985489605127, 15687.81771514627, -3318.317630090431, 14809.327102819338, 7244.043915753832, -187500.02235174447, -187500.02235174447, -0.17400000000000002, -0.806, -0.6, 192.0, 250.0, 144.0, 230.0, 208.0, 237.0, 64.0, 0.0, 0.0, 0.0, 1.6776154746926968E9, 0.0, 2023-02-28 12:17:54.692
136.0, 26843.282800112105, -4443.705611670686, 15894.683110080137, -3319.301106846465, 14916.123737826794, 7332.02038192992, -187500.02235174447, -187500.02235174447, -0.17400000000000002, -0.806, -0.6, 192.0, 0.0, 0.0, 0.0, 0.0, 0.0, 0.0, 0.0, 0.0, 0.0, 1.6776154746967173E9, 0.0, 2023-02-28 12:17:54.696
137.0, 26865.23221316722, -4440.866940124863, 15929.663590152693, -3316.305973089454, 14933.558098501933, 7325.985410926987, -187500.02235174447, -187500.02235174447, -0.17400000000000002, -0.806, -0.6, 192.0, 0.0, 0.0, 0.0, 0.0, 0.0, 0.0, 0.0, 0.0, 0.0, 1.6776154747007241E9, 0.0, 2023-02-28 12:17:54.700
138.0, 26849.22836413722, -4439.9952220911055, 15728.229669121465, -3312.6626387432384, 14831.522385063457, 7240.981726763454, -187500.02235174447, -187500.02235174447, -0.17400000000000002, -0.806, -0.6, 192.0, 0.0, 0.0, 0.0, 0.0, 0.0, 0.0, 0.0, 0.0, 0.0, 1.6776154747046912E9, 0.0, 2023-02-28 12:17:54.704
