%OpenBCI Raw EEG Data
%Number of channels = 8
%Sample Rate = 250 Hz
%Board = OpenBCI_GUI$BoardCytonSerial
Sample Index, EXG Channel 0, EXG Channel 1, EXG Channel 2, EXG Channel 3, EXG Channel 4, EXG Channel 5, EXG Channel 6, EXG Channel 7, Accel Channel 0, Accel Channel 1, Accel Channel 2, Other, Other, Other, Other, Other, Other, Other, Analog Channel 0, Analog Channel 1, Analog Channel 2, Timestamp, Other, Timestamp (Formatted)
79.0, 25907.59407372404, -4465.163286347782, 15938.313715256896, -3374.2416947176093, 14996.612369610355, 7388.391481446205, -187500.02235174447, -187500.02235174447, 0.0, 0.0, 0.0, 192.0, 0.0, 0.0, 0.0, 0.0, 0.0, 0.0, 0.0, 0.0, 0.0, 1.6776155296669583E9, 0.0, 2023-02-28 12:18:49.666
80.0, 25946.195536398358, -4465.1185828588705, 16227.902916419855, -3376.0968895074, 15142.055170781037, 7497.95973276612, -187500.02235174447, -187500.02235174447, 0.0, 0.0, 0.0, 192.0, 0.0, 0.0, 0.0, 0.0, 0.0, 0.0, 0.0, 0.0, 0.0, 1.6776155296669939E9, 0.0, 2023-02-28 12:18:49.666
81.0, 25934.818498470606, -4460.73764094563, 16185.635767654869, -3372.6323691168272, 15120.709254826219, 7452.920967688677, -187500.02235174447, -187500.02235174447, 0.0, 0.0, 0.0, 192.0, 0.0, 0.0, 0.0, 0.0, 0.0, 0.0, 0.0, 0.0, 0.0, 1.67761552966701E9, 0.0, 2023-02-28 12:18:49.667
82.0, 25894.83122764006, -4457.675451955253, 15890.369223400263, -3369.9501597821904, 14973.411258865746, 7332.333306352295, -187500.02235174447, -187500.02235174447, -0.20400000000000001, -0.76, -0.636, 192.0, 249.0, 160.0, 232.0, 64.0, 236.0, 32.0, 0.0, 0.0, 0.0, 1.677615529667026E9, 0.0, 2023-02-28 12:18:49.667
0.0, 0.0, 0.0, 0.0, 0.0, 0.0, 0.0, 0.0, 0.0, -0.20400000000000001, -0.76, -0.636, 192.0, 0.0, 0.0, 0.0, 0.0, 0.0, 0.0, 0.0, 0.0, 0.0, 1.67761552975052E9, 0.0, 2023-02-28 12:18:49.750
1.0, 26203.665280779038, -4404.2994861959805, 15822.79989991187, -3304.280734572498, 14829.354265851292, 7224.106159699698, -187500.02235174447, -187500.02235174447, -0.188, -0.764, -0.626, 192.0, 250.0, 32.0, 232.0, 32.0, 236.0, 112.0, 0.0, 0.0, 0.0, 1.6776155297665849E9, 0.0, 2023-02-28 12:18:49.766
2.0, 26217.299844896777, -4407.808710075464, 15905.881334052247, -3307.678199729705, 14869.118019237283, 7270.217808510996, -187500.02235174447, -187500.02235174447, -0.188, -0.764, -0.626, 192.0, 0.0, 0.0, 0.0, 0.0, 0.0, 0.0, 0.0, 0.0, 0.0, 1.6776155297705667E9, 0.0, 2023-02-28 12:18:49.770
3.0, 26249.843984823703, -4409.194518231692, 16064.534016196016, -3309.9804294086016, 14948.556119031444, 7328.824082472812, -187500.02235174447, -187500.02235174447, -0.188, -0.764, -0.626, 192.0, 0.0, 0.0, 0.0, 0.0, 0.0, 0.0, 0.0, 0.0, 0.0, 1.6776155297736447E9, 0.0, 2023-02-28 12:18:49.773
4.0, 26253.040284280814, -4406.981695530617, 16002.418518354718, -3308.5052142745512, 14913.732101170077, 7291.317855276806, -187500.02235174447, -187500.02235174447, -0.188, -0.764, -0.626, 192.0, 0.0, 0.0, 0.0, 0.0, 0.0, 0.0, 0.0, 0.0, 0.0, 1.677615529777645E9, 0.0, 2023-02-28 12:18:49.777
5.0, 26223.066594966247, -4407.24991646408, 15837.529699507917, -3307.0299991405013, 14827.32025710586, 7228.107121957198, -187500.02235174447, -187500.02235174447, -0.188, -0.764, -0.626, 192.0, 0.0, 0.0, 0.0, 0.0, 0.0, 0.0, 0.0, 0.0, 0.0, 1.6776155297816353E9, 0.0, 2023-02-28 12:18:49.781
6.0, 26225.14530720059, -4412.077893266427, 15879.014537216966, -3310.136891619789, 14843.03353345794, 7262.327642718273, -187500.02235174447, -187500.02235174447, -0.188, -0.764, -0.626, 192.0, 0.0, 0.0, 0.0, 0.0, 0.0, 0.0, 0.0, 0.0, 0.0, 1.6776155297846053E9, 0.0, 2023-02-28 12:18:49.784
7.0, 26249.24048772341, -4416.324724712936, 16049.759513111057, -3313.5120050325404, 14928.819528677408, 7332.914451708133, -187500.02235174447, -187500.02235174447, -0.188, -0.764, -0.626, 192.0, 0.0, 0.0, 0.0, 0.0, 0.0, 0.0, 0.0, 0.0, 0.0, 1.67761552978965E9, 0.0, 2023-02-28 12:18:49.789
8.0, 26249.843984823703, -4414.849509578885, 16029.97821926811, -3312.349714320864, 14920.057644850927, 7307.500518262448, -187500.02235174447, -187500.02235174447, -0.188, -0.762, -0.628, 192.0, 250.0, 32.0, 232.0, 48.0, 236.0, 96.0, 0.0, 0.0, 0.0, 1.6776155297946973E9, 0.0, 2023-02-28 12:18:49.794
9.0, 26236.522345128342, -4410.379160687824, 15856.79690322839, -3309.3769323083084, 14829.778948995943, 7236.667840083581, -187500.02235174447, -187500.02235174447, -0.188, -0.762, -0.628, 192.0, 0.0, 0.0, 0.0, 0.0, 0.0, 0.0, 0.0, 0.0, 0.0, 1.6776155297977128E9, 0.0, 2023-02-28 12:18:49.797
10.0, 26247.34058944471, -4409.261573465058, 15853.80176947138, -3309.6451532417723, 14828.437844328624, 7250.391811179139, -187500.02235174447, -187500.02235174447, -0.188, -0.762, -0.628, 192.0, 0.0, 0.0, 0.0, 0.0, 0.0, 0.0, 0.0, 0.0, 0.0, 1.677615529801605E9, 0.0, 2023-02-28 12:18:49.801
11.0, 26279.370639249166, -4410.356808943368, 16023.652675587258, -3311.388589309286, 14917.889525638764, 7320.375123068706, -187500.02235174447, -187500.02235174447, -0.188, -0.762, -0.628, 192.0, 0.0, 0.0, 0.0, 0.0, 0.0, 0.0, 0.0, 0.0, 0.0, 1.677615529805652E9, 0.0, 2023-02-28 12:18:49.805
12.0, 26289.272462042867, -4410.088588009905, 16048.12783576582, -3309.8239671974147, 14932.529918256989, 7314.138986365675, -187500.02235174447, -187500.02235174447, -0.188, -0.762, -0.628, 192.0, 0.0, 0.0, 0.0, 0.0, 0.0, 0.0, 0.0, 0.0, 0.0, 1.6776155298096964E9, 0.0, 2023-02-28 12:18:49.809
13.0, 26265.62431640915, -4411.027361277028, 15878.634557561227, -3308.9298974192025, 14842.385332868736, 7237.114874972686, -187500.02235174447, -187500.02235174447, -0.188, -0.762, -0.628, 192.0, 0.0, 0.0, 0.0, 0.0, 0.0, 0.0, 0.0, 0.0, 0.0, 1.6776155298136563E9, 0.0, 2023-02-28 12:18:49.813
14.0, 26260.30460122879, -4411.16147174376, 15832.589963983293, -3309.3992840527635, 14812.858678443275, 7238.075999984265, -187500.02235174447, -187500.02235174447, -0.188, -0.762, -0.628, 192.0, 0.0, 0.0, 0.0, 0.0, 0.0, 0.0, 0.0, 0.0, 0.0, 1.6776155298176503E9, 0.0, 2023-02-28 12:18:49.817
15.0, 26296.24620631292, -4412.8155008334525, 15995.042442684466, -3310.8968509312695, 14892.52029568199, 7314.250745087951, -187500.02235174447, -187500.02235174447, -0.188, -0.762, -0.628, 192.0, 0.0, 0.0, 0.0, 0.0, 0.0, 0.0, 0.0, 0.0, 0.0, 1.6776155298216107E9, 0.0, 2023-02-28 12:18:49.821
16.0, 26320.699014747028, -4415.363599701357, 16066.836245874912, -3311.8579759428476, 14923.09748209685, 7326.387742327183, -187500.02235174447, -187500.02235174447, -0.188, -0.762, -0.628, 192.0, 0.0, 0.0, 0.0, 0.0, 0.0, 0.0, 0.0, 0.0, 0.0, 1.6776155298246524E9, 0.0, 2023-02-28 12:18:49.824
17.0, 26305.74569770643, -4416.794111346497, 15912.944485300122, -3309.3769323083084, 14848.666173060677, 7253.543407147337, -187500.02235174447, -187500.02235174447, -0.188, -0.762, -0.628, 192.0, 0.0, 0.0, 0.0, 0.0, 0.0, 0.0, 0.0, 0.0, 0.0, 1.677615529828671E9, 0.0, 2023-02-28 12:18:49.828
18.0, 26298.034345869346, -4416.235317735114, 15823.045769100878, -3309.3322288193976, 14804.230905083527, 7231.14695920312, -187500.02235174447, -187500.02235174447, -0.188, -0.764, -0.628, 192.0, 250.0, 32.0, 232.0, 32.0, 236.0, 96.0, 0.0, 0.0, 0.0, 1.6776155298337393E9, 0.0, 2023-02-28 12:18:49.833
19.0, 26321.391918825142, -4413.687218867209, 15961.984212635067, -3311.120368375822, 14877.812847830397, 7298.470413502505, -187500.02235174447, -187500.02235174447, -0.188, -0.764, -0.628, 192.0, 0.0, 0.0, 0.0, 0.0, 0.0, 0.0, 0.0, 0.0, 0.0, 1.6776155298377104E9, 0.0, 2023-02-28 12:18:49.837
20.0, 26324.856439215713, -4409.373332187335, 16068.51262670906, -3308.862842185836, 14941.157691616738, 7333.7191145085235, -187500.02235174447, -187500.02235174447, -0.188, -0.764, -0.628, 192.0, 0.0, 0.0, 0.0, 0.0, 0.0, 0.0, 0.0, 0.0, 0.0, 1.677615529841666E9, 0.0, 2023-02-28 12:18:49.841
21.0, 26307.869113429682, -4406.2440879635915, 15940.101854813322, -3304.839528183881, 14874.728307095565, 7277.459773714516, -187500.02235174447, -187500.02235174447, -0.188, -0.764, -0.628, 192.0, 0.0, 0.0, 0.0, 0.0, 0.0, 0.0, 0.0, 0.0, 0.0, 1.677615529845657E9, 0.0, 2023-02-28 12:18:49.845
22.0, 26283.48336022894, -4407.0040472750725, 15818.0836818318, -3303.8336996833923, 14809.394158052703, 7239.461808140494, -187500.02235174447, -187500.02235174447, -0.188, -0.764, -0.628, 192.0, 0.0, 0.0, 0.0, 0.0, 0.0, 0.0, 0.0, 0.0, 0.0, 1.6776155298497267E9, 0.0, 2023-02-28 12:18:49.849
23.0, 26303.26465407189, -4407.115805997349, 15927.674284896171, -3305.4206735397192, 14864.7594290685, 7298.336303035772, -187500.02235174447, -187500.02235174447, -0.188, -0.764, -0.628, 192.0, 0.0, 0.0, 0.0, 0.0, 0.0, 0.0, 0.0, 0.0, 0.0, 1.6776155298527727E9, 0.0, 2023-02-28 12:18:49.852
24.0, 26346.2694104039, -4405.282962952014, 16066.120990052343, -3305.867708428825, 14937.469653781613, 7349.342983882783, -187500.02235174447, -187500.02235174447, -0.188, -0.764, -0.628, 192.0, 0.0, 0.0, 0.0, 0.0, 0.0, 0.0, 0.0, 0.0, 0.0, 1.6776155298567011E9, 0.0, 2023-02-28 12:18:49.856
25.0, 26331.78547999686, -4404.545355384988, 15971.64016623976, -3303.520775261018, 14898.309397495914, 7287.20513429703, -187500.02235174447, -187500.02235174447, -0.188, -0.764, -0.628, 192.0, 0.0, 0.0, 0.0, 0.0, 0.0, 0.0, 0.0, 0.0, 0.0, 1.6776155298617144E9, 0.0, 2023-02-28 12:18:49.861
26.0, 26318.64265425714, -4404.567707129444, 15822.531678978406, -3302.291429315976, 14819.698312246599, 7232.823340037267, -187500.02235174447, -187500.02235174447, -0.188, -0.764, -0.628, 192.0, 0.0, 0.0, 0.0, 0.0, 0.0, 0.0, 0.0, 0.0, 0.0, 1.6776155298657353E9, 0.0, 2023-02-28 12:18:49.865
27.0, 26340.1673841676, -4407.741654842098, 15898.348796170807, -3304.973638650613, 14857.964498754085, 7284.500573217938, -187500.02235174447, -187500.02235174447, -0.188, -0.764, -0.628, 192.0, 0.0, 0.0, 0.0, 0.0, 0.0, 0.0, 0.0, 0.0, 0.0, 1.677615529869799E9, 0.0, 2023-02-28 12:18:49.869
28.0, 26354.248983174442, -4411.675561866232, 16060.868330105344, -3308.236993341088, 14944.376342818303, 7346.303146636862, -187500.02235174447, -187500.02235174447, -0.188, -0.776, -0.632, 192.0, 250.0, 32.0, 231.0, 192.0, 236.0, 64.0, 0.0, 0.0, 0.0, 1.6776155298737316E9, 0.0, 2023-02-28 12:18:49.873
29.0, 26322.55420953682, -4409.1721664872375, 16005.480707345094, -3305.4653770286295, 14917.442490749658, 7309.266306074418, -187500.02235174447, -187500.02235174447, -0.188, -0.776, -0.632, 192.0, 0.0, 0.0, 0.0, 0.0, 0.0, 0.0, 0.0, 0.0, 0.0, 1.6776155298768065E9, 0.0, 2023-02-28 12:18:49.876
30.0, 26303.711688960993, -4407.518137397545, 15837.730865208016, -3303.6325339832943, 14832.46115833058, 7242.903976786612, -187500.02235174447, -187500.02235174447, -0.188, -0.776, -0.632, 192.0, 0.0, 0.0, 0.0, 0.0, 0.0, 0.0, 0.0, 0.0, 0.0, 1.677615529880701E9, 0.0, 2023-02-28 12:18:49.880
31.0, 26317.97210192348, -4407.786358331008, 15870.0961911793, -3305.4206735397192, 14850.119036450273, 7270.82130561129, -187500.02235174447, -187500.02235174447, -0.188, -0.776, -0.632, 192.0, 0.0, 0.0, 0.0, 0.0, 0.0, 0.0, 0.0, 0.0, 0.0, 1.6776155298846908E9, 0.0, 2023-02-28 12:18:49.884
32.0, 26337.77574751088, -4410.088588009905, 16042.718713607635, -3308.75108346356, 14938.743703215565, 7333.0709139193195, -187500.02235174447, -187500.02235174447, -0.188, -0.776, -0.632, 192.0, 0.0, 0.0, 0.0, 0.0, 0.0, 0.0, 0.0, 0.0, 0.0, 1.6776155298897653E9, 0.0, 2023-02-28 12:18:49.889
33.0, 26339.273314389386, -4412.8155008334525, 16032.436911158195, -3307.9240689187136, 14934.876851424797, 7315.8153671998225, -187500.02235174447, -187500.02235174447, -0.188, -0.776, -0.632, 192.0, 0.0, 0.0, 0.0, 0.0, 0.0, 0.0, 0.0, 0.0, 0.0, 1.6776155298937979E9, 0.0, 2023-02-28 12:18:49.893
34.0, 26319.91670369109, -4417.844643335896, 15862.586005042316, -3307.9240689187136, 14844.307582891892, 7244.043915753832, -187500.02235174447, -187500.02235174447, -0.188, -0.776, -0.632, 192.0, 0.0, 0.0, 0.0, 0.0, 0.0, 0.0, 0.0, 0.0, 0.0, 1.6776155298977401E9, 0.0, 2023-02-28 12:18:49.897
35.0, 26321.2131048695, -4419.0963410253935, 15853.42178981564, -3309.0863596303893, 14833.668152531167, 7261.321814217784, -187500.02235174447, -187500.02235174447, -0.188, -0.776, -0.632, 192.0, 0.0, 0.0, 0.0, 0.0, 0.0, 0.0, 0.0, 0.0, 0.0, 1.6776155299018395E9, 0.0, 2023-02-28 12:18:49.901
36.0, 26340.659122545618, -4417.799939846986, 16022.289219175485, -3310.6733334867163, 14927.254906565537, 7336.155454654152, -187500.02235174447, -187500.02235174447, -0.188, -0.776, -0.632, 192.0, 0.0, 0.0, 0.0, 0.0, 0.0, 0.0, 0.0, 0.0, 0.0, 1.6776155299057915E9, 0.0, 2023-02-28 12:18:49.905
37.0, 26336.859325988215, -4416.078855523927, 16056.442684703194, -3309.3769323083084, 14949.24902310956, 7330.20989062904, -187500.02235174447, -187500.02235174447, -0.188, -0.776, -0.632, 192.0, 0.0, 0.0, 0.0, 0.0, 0.0, 0.0, 0.0, 0.0, 0.0, 1.677615529908782E9, 0.0, 2023-02-28 12:18:49.908
38.0, 26308.137334363146, -4416.838814835407, 15892.425583890152, -3308.169938107722, 14861.697240078121, 7257.745535104935, -187500.02235174447, -187500.02235174447, -0.188, -0.776, -0.628, 192.0, 250.0, 32.0, 231.0, 192.0, 236.0, 96.0, 0.0, 0.0, 0.0, 1.6776155299126973E9, 0.0, 2023-02-28 12:18:49.912
39.0, 26314.73109897746, -4414.335419456413, 15836.27800181842, -3307.7676067075263, 14833.534042064435, 7251.174122235075, -187500.02235174447, -187500.02235174447, -0.188, -0.776, -0.628, 192.0, 0.0, 0.0, 0.0, 0.0, 0.0, 0.0, 0.0, 0.0, 0.0, 1.6776155299187217E9, 0.0, 2023-02-28 12:18:49.918
40.0, 26359.144015210157, -4411.20617523267, 15991.957901949634, -3308.236993341088, 14913.508583725523, 7324.711361493035, -187500.02235174447, -187500.02235174447, -0.188, -0.776, -0.628, 192.0, 0.0, 0.0, 0.0, 0.0, 0.0, 0.0, 0.0, 0.0, 0.0, 1.6776155299217296E9, 0.0, 2023-02-28 12:18:49.921
41.0, 26371.437474660575, -4413.2848874670135, 16069.9431383542, -3308.5052142745512, 14958.077962169406, 7342.235129145995, -187500.02235174447, -187500.02235174447, -0.188, -0.776, -0.628, 192.0, 0.0, 0.0, 0.0, 0.0, 0.0, 0.0, 0.0, 0.0, 0.0, 1.6776155299257548E9, 0.0, 2023-02-28 12:18:49.925
42.0, 26343.3189801358, -4417.822291591441, 15924.075654038867, -3308.2146415966326, 14880.226836231572, 7272.430631212072, -187500.02235174447, -187500.02235174447, -0.188, -0.776, -0.628, 192.0, 0.0, 0.0, 0.0, 0.0, 0.0, 0.0, 0.0, 0.0, 0.0, 1.6776155299297903E9, 0.0, 2023-02-28 12:18:49.929
43.0, 26333.797136997837, -4417.73288461362, 15829.170147081632, -3307.521737518518, 14825.152137893694, 7254.638642625648, -187500.02235174447, -187500.02235174447, -0.188, -0.776, -0.628, 192.0, 0.0, 0.0, 0.0, 0.0, 0.0, 0.0, 0.0, 0.0, 0.0, 1.6776155299337711E9, 0.0, 2023-02-28 12:18:49.933
44.0, 26357.221765186998, -4418.135216013815, 15962.610061479816, -3309.064007885934, 14893.190848015649, 7317.02236140041, -187500.02235174447, -187500.02235174447, -0.188, -0.776, -0.628, 192.0, 0.0, 0.0, 0.0, 0.0, 0.0, 0.0, 0.0, 0.0, 0.0, 1.6776155299368165E9, 0.0, 2023-02-28 12:18:49.936
45.0, 26361.110968722223, -4420.526852670533, 16078.235635547118, -3310.9862579090905, 14955.842787723876, 7344.783228013901, -187500.02235174447, -187500.02235174447, -0.188, -0.776, -0.628, 192.0, 0.0, 0.0, 0.0, 0.0, 0.0, 0.0, 0.0, 0.0, 0.0, 1.6776155299407427E9, 0.0, 2023-02-28 12:18:49.940
46.0, 26328.410366584107, -4421.599736404388, 15958.787913177957, -3310.2710020865206, 14896.767127128498, 7278.465602215005, -187500.02235174447, -187500.02235174447, -0.188, -0.776, -0.628, 192.0, 0.0, 0.0, 0.0, 0.0, 0.0, 0.0, 0.0, 0.0, 0.0, 1.6776155299457712E9, 0.0, 2023-02-28 12:18:49.945
47.0, 26321.92836069207, -4423.052599793983, 15830.600658726771, -3309.935725919691, 14829.913059462675, 7237.7407238174355, -187500.02235174447, -187500.02235174447, -0.188, -0.776, -0.628, 192.0, 0.0, 0.0, 0.0, 0.0, 0.0, 0.0, 0.0, 0.0, 0.0, 1.677615529949786E9, 0.0, 2023-02-28 12:18:49.949
48.0, 26341.173212668087, -4424.840739350408, 15933.172814032176, -3312.483824787596, 14882.41730718819, 7294.4470995005495, -187500.02235174447, -187500.02235174447, -0.184, -0.774, -0.628, 192.0, 250.0, 64.0, 231.0, 208.0, 236.0, 96.0, 0.0, 0.0, 0.0, 1.6776155299537747E9, 0.0, 2023-02-28 12:18:49.953
49.0, 26356.148881453144, -4421.040942793005, 16076.291033779507, -3310.829795697903, 14958.77086624752, 7349.79001877189, -187500.02235174447, -187500.02235174447, -0.184, -0.774, -0.628, 192.0, 0.0, 0.0, 0.0, 0.0, 0.0, 0.0, 0.0, 0.0, 0.0, 1.6776155299577694E9, 0.0, 2023-02-28 12:18:49.957
50.0, 26331.472555574484, -4420.996239304094, 15989.208637381631, -3308.862842185836, 14918.247153550048, 7296.123480334697, -187500.02235174447, -187500.02235174447, -0.184, -0.774, -0.628, 192.0, 0.0, 0.0, 0.0, 0.0, 0.0, 0.0, 0.0, 0.0, 0.0, 1.677615529961838E9, 0.0, 2023-02-28 12:18:49.961
51.0, 26310.104287875212, -4422.672620138243, 15835.048655873377, -3308.2146415966326, 14835.813919998876, 7237.539558117338, -187500.02235174447, -187500.02235174447, -0.184, -0.774, -0.628, 192.0, 0.0, 0.0, 0.0, 0.0, 0.0, 0.0, 0.0, 0.0, 0.0, 1.6776155299648094E9, 0.0, 2023-02-28 12:18:49.964
52.0, 26331.45020383003, -4423.007896305072, 15898.929941526645, -3309.7569119640484, 14866.525216880467, 7280.72312840499, -187500.02235174447, -187500.02235174447, -0.184, -0.774, -0.628, 192.0, 0.0, 0.0, 0.0, 0.0, 0.0, 0.0, 0.0, 0.0, 0.0, 1.6776155299688995E9, 0.0, 2023-02-28 12:18:49.968
53.0, 26365.581317613283, -4419.409265447768, 16062.723524895137, -3309.6004497528616, 14951.439494066179, 7347.420733859627, -187500.02235174447, -187500.02235174447, -0.184, -0.774, -0.628, 192.0, 0.0, 0.0, 0.0, 0.0, 0.0, 0.0, 0.0, 0.0, 0.0, 1.677615529973818E9, 0.0, 2023-02-28 12:18:49.973
54.0, 26349.823337772294, -4418.783416603019, 16017.349483650862, -3307.8570136853477, 14931.658200223232, 7310.8756316752, -187500.02235174447, -187500.02235174447, -0.184, -0.774, -0.628, 192.0, 0.0, 0.0, 0.0, 0.0, 0.0, 0.0, 0.0, 0.0, 0.0, 1.6776155299779372E9, 0.0, 2023-02-28 12:18:49.977
55.0, 26336.009959698913, -4419.141044514304, 15851.700705492582, -3306.650019484761, 14842.564146824378, 7245.832055310257, -187500.02235174447, -187500.02235174447, -0.184, -0.774, -0.628, 192.0, 0.0, 0.0, 0.0, 0.0, 0.0, 0.0, 0.0, 0.0, 0.0, 1.6776155299817672E9, 0.0, 2023-02-28 12:18:49.981
56.0, 26356.12652970869, -4418.425788691734, 15874.499484836995, -3307.186461351688, 14855.818731286376, 7273.347052734739, -187500.02235174447, -187500.02235174447, -0.184, -0.774, -0.628, 192.0, 0.0, 0.0, 0.0, 0.0, 0.0, 0.0, 0.0, 0.0, 0.0, 1.6776155299859796E9, 0.0, 2023-02-28 12:18:49.985
57.0, 26380.378172442695, -4421.644439893298, 16046.004420042565, -3309.4439875416742, 14946.723275986109, 7339.3517541112615, -187500.02235174447, -187500.02235174447, -0.184, -0.774, -0.628, 192.0, 0.0, 0.0, 0.0, 0.0, 0.0, 0.0, 0.0, 0.0, 0.0, 1.677615529988866E9, 0.0, 2023-02-28 12:18:49.988
58.0, 26346.44822435954, -4424.63957365031, 16043.925707808223, -3308.6393247412834, 14949.539595787479, 7323.012628914432, -187500.02235174447, -187500.02235174447, -0.18, -0.77, -0.624, 192.0, 250.0, 96.0, 231.0, 240.0, 236.0, 128.0, 0.0, 0.0, 0.0, 1.6776155299928145E9, 0.0, 2023-02-28 12:18:49.992
59.0, 26312.697090232028, -4425.041905050505, 15871.929034224635, -3307.253516585054, 14860.870225533276, 7254.571587392282, -187500.02235174447, -187500.02235174447, -0.18, -0.77, -0.624, 192.0, 0.0, 0.0, 0.0, 0.0, 0.0, 0.0, 0.0, 0.0, 0.0, 1.6776155299968052E9, 0.0, 2023-02-28 12:18:49.996
60.0, 26309.16551460809, -4426.762989373564, 15851.767760725948, -3309.1310631193, 14847.995620727019, 7261.098296773232, -187500.02235174447, -187500.02235174447, -0.18, -0.77, -0.624, 192.0, 0.0, 0.0, 0.0, 0.0, 0.0, 0.0, 0.0, 0.0, 0.0, 1.6776155300008247E9, 0.0, 2023-02-28 12:18:50.000
61.0, 26338.64746554464, -4429.691067897209, 16018.60118134036, -3311.455644542652, 14935.078017124895, 7327.371219083217, -187500.02235174447, -187500.02235174447, -0.18, -0.77, -0.624, 192.0, 0.0, 0.0, 0.0, 0.0, 0.0, 0.0, 0.0, 0.0, 0.0, 1.6776155300069165E9, 0.0, 2023-02-28 12:18:50.006
62.0, 26359.16636695461, -4427.634707407321, 16058.811969615457, -3308.9746009081127, 14960.62606103731, 7329.7852074843895, -187500.02235174447, -187500.02235174447, -0.18, -0.77, -0.624, 192.0, 0.0, 0.0, 0.0, 0.0, 0.0, 0.0, 0.0, 0.0, 0.0, 1.6776155300109072E9, 0.0, 2023-02-28 12:18:50.010
63.0, 26320.900180447126, -4427.366486473857, 15896.29243568092, -3306.650019484761, 14876.404687929713, 7262.998195051932, -187500.02235174447, -187500.02235174447, -0.18, -0.77, -0.624, 192.0, 0.0, 0.0, 0.0, 0.0, 0.0, 0.0, 0.0, 0.0, 0.0, 1.6776155300138328E9, 0.0, 2023-02-28 12:18:50.013
64.0, 26306.282139573355, -4430.696896397698, 15836.680333218615, -3309.108711374845, 14841.692428790622, 7251.8893780576445, -187500.02235174447, -187500.02235174447, -0.18, -0.77, -0.624, 192.0, 0.0, 0.0, 0.0, 0.0, 0.0, 0.0, 0.0, 0.0, 0.0, 1.6776155300168304E9, 0.0, 2023-02-28 12:18:50.016
65.0, 26338.960389967015, -4428.975812074639, 15989.812134481925, -3310.807443953448, 14920.52703148449, 7320.889213191178, -187500.02235174447, -187500.02235174447, -0.18, -0.77, -0.624, 192.0, 0.0, 0.0, 0.0, 0.0, 0.0, 0.0, 0.0, 0.0, 0.0, 1.6776155300208435E9, 0.0, 2023-02-28 12:18:50.020
66.0, 26354.628962830182, -4428.104094040882, 16076.13457156832, -3310.0474846419675, 14962.660069782743, 7342.056315190353, -187500.02235174447, -187500.02235174447, -0.18, -0.77, -0.624, 192.0, 0.0, 0.0, 0.0, 0.0, 0.0, 0.0, 0.0, 0.0, 0.0, 1.6776155300248148E9, 0.0, 2023-02-28 12:18:50.024
67.0, 26329.751471251428, -4427.858224851874, 15934.648029166226, -3307.7229032186156, 14893.816696860398, 7272.430631212072, -187500.02235174447, -187500.02235174447, -0.18, -0.77, -0.624, 192.0, 0.0, 0.0, 0.0, 0.0, 0.0, 0.0, 0.0, 0.0, 0.0, 1.6776155300288885E9, 0.0, 2023-02-28 12:18:50.028
68.0, 26316.809811211802, -4426.807692862474, 15832.902888405668, -3306.515909018029, 14842.295925890914, 7249.7212588454795, -187500.02235174447, -187500.02235174447, -0.182, -0.774, -0.638, 192.0, 250.0, 80.0, 231.0, 208.0, 236.0, 16.0, 0.0, 0.0, 0.0, 1.6776155300338416E9, 0.0, 2023-02-28 12:18:50.033
69.0, 26336.680512032573, -4425.690105639709, 15961.470122512595, -3307.3429235628755, 14911.072243579894, 7315.368332310717, -187500.02235174447, -187500.02235174447, -0.182, -0.774, -0.638, 192.0, 0.0, 0.0, 0.0, 0.0, 0.0, 0.0, 0.0, 0.0, 0.0, 1.67761553003803E9, 0.0, 2023-02-28 12:18:50.038
70.0, 26368.665858348115, -4422.024419549039, 16081.23076930413, -3307.1417578627775, 14978.082773456905, 7348.717135038035, -187500.02235174447, -187500.02235174447, -0.182, -0.774, -0.638, 192.0, 0.0, 0.0, 0.0, 0.0, 0.0, 0.0, 0.0, 0.0, 0.0, 1.6776155300409625E9, 0.0, 2023-02-28 12:18:50.040
71.0, 26366.855367047236, -4419.856300336874, 15966.074581870387, -3305.4206735397192, 14918.80594716143, 7283.673558673091, -187500.02235174447, -187500.02235174447, -0.182, -0.774, -0.638, 192.0, 0.0, 0.0, 0.0, 0.0, 0.0, 0.0, 0.0, 0.0, 0.0, 1.677615530044983E9, 0.0, 2023-02-28 12:18:50.044
72.0, 26342.603724313227, -4420.839777092908, 15832.053522116366, -3304.1466241057665, 14848.017972471473, 7242.367534919684, -187500.02235174447, -187500.02235174447, -0.182, -0.774, -0.638, 192.0, 0.0, 0.0, 0.0, 0.0, 0.0, 0.0, 0.0, 0.0, 0.0, 1.677615530048889E9, 0.0, 2023-02-28 12:18:50.048
73.0, 26367.59297461426, -4421.77855036003, 15927.495470940528, -3305.3983217952637, 14902.533877197968, 7297.866916402211, -187500.02235174447, -187500.02235174447, -0.182, -0.774, -0.638, 192.0, 0.0, 0.0, 0.0, 0.0, 0.0, 0.0, 0.0, 0.0, 0.0, 1.6776155300529232E9, 0.0, 2023-02-28 12:18:50.052
74.0, 26392.671631893118, -4421.309163726469, 16076.603958201882, -3306.94059216268, 14982.508418859055, 7350.21470191654, -187500.02235174447, -187500.02235174447, -0.182, -0.774, -0.638, 192.0, 0.0, 0.0, 0.0, 0.0, 0.0, 0.0, 0.0, 0.0, 0.0, 1.6776155300569327E9, 0.0, 2023-02-28 12:18:50.056
75.0, 26366.296573435855, -4417.934050313717, 15998.015224697021, -3305.1748043507105, 14939.883642182785, 7306.092358361764, -187500.02235174447, -187500.02235174447, -0.182, -0.774, -0.638, 192.0, 0.0, 0.0, 0.0, 0.0, 0.0, 0.0, 0.0, 0.0, 0.0, 1.6776155300620017E9, 0.0, 2023-02-28 12:18:50.062
76.0, 26346.537631337364, -4415.385951445813, 15840.055446631366, -3303.9901618945796, 14857.27159467597, 7248.089581500242, -187500.02235174447, -187500.02235174447, -0.182, -0.774, -0.638, 192.0, 0.0, 0.0, 0.0, 0.0, 0.0, 0.0, 0.0, 0.0, 0.0, 1.6776155300659103E9, 0.0, 2023-02-28 12:18:50.065
77.0, 26368.308230436833, -4416.2800212240245, 15897.320615925863, -3305.6665427287276, 14885.94888281213, 7290.781413409879, -187500.02235174447, -187500.02235174447, -0.182, -0.774, -0.638, 192.0, 0.0, 0.0, 0.0, 0.0, 0.0, 0.0, 0.0, 0.0, 0.0, 1.6776155300689652E9, 0.0, 2023-02-28 12:18:50.068
78.0, 26385.966108556524, -4418.917527069751, 16062.097676050387, -3307.208813096144, 14974.01475596604, 7354.081553707309, -187500.02235174447, -187500.02235174447, -0.188, -0.774, -0.634, 192.0, 250.0, 32.0, 231.0, 208.0, 236.0, 48.0, 0.0, 0.0, 0.0, 1.6776155300739067E9, 0.0, 2023-02-28 12:18:50.073
79.0, 26371.1245502382, -4419.0963410253935, 16023.987951754088, -3304.973638650613, 14958.6814592697, 7317.245878844962, -187500.02235174447, -187500.02235174447, -0.188, -0.774, -0.634, 192.0, 0.0, 0.0, 0.0, 0.0, 0.0, 0.0, 0.0, 0.0, 0.0, 1.677615530076976E9, 0.0, 2023-02-28 12:18:50.076
80.0, 26346.180003426078, -4422.583213160421, 15854.76289448296, -3305.5994874953617, 14866.122885480272, 7246.413200666095, -187500.02235174447, -187500.02235174447, -0.188, -0.774, -0.634, 192.0, 0.0, 0.0, 0.0, 0.0, 0.0, 0.0, 0.0, 0.0, 0.0, 1.6776155300809233E9, 0.0, 2023-02-28 12:18:50.080
81.0, 26360.708637322026, -4422.605564904877, 15870.923205724146, -3306.873536929314, 14870.146199482228, 7273.01177656791, -187500.02235174447, -187500.02235174447, -0.188, -0.774, -0.634, 192.0, 0.0, 0.0, 0.0, 0.0, 0.0, 0.0, 0.0, 0.0, 0.0, 1.677615530084964E9, 0.0, 2023-02-28 12:18:50.084
82.0, 26385.47437017851, -4421.957364315673, 16041.019981029032, -3308.326400318909, 14958.882624969796, 7344.582062313803, -187500.02235174447, -187500.02235174447, -0.188, -0.774, -0.634, 192.0, 0.0, 0.0, 0.0, 0.0, 0.0, 0.0, 0.0, 0.0, 0.0, 1.6776155300899324E9, 0.0, 2023-02-28 12:18:50.089
83.0, 26386.03316378989, -4420.3256869704355, 16047.636097387804, -3306.873536929314, 14962.995345949574, 7332.221547630018, -187500.02235174447, -187500.02235174447, -0.188, -0.774, -0.634, 192.0, 0.0, 0.0, 0.0, 0.0, 0.0, 0.0, 0.0, 0.0, 0.0, 1.6776155300939925E9, 0.0, 2023-02-28 12:18:50.093
84.0, 26379.595861386762, -4417.285849724513, 15878.545150583406, -3304.325438061409, 14879.623339131278, 7259.2878054723515, -187500.02235174447, -187500.02235174447, -0.188, -0.774, -0.634, 192.0, 0.0, 0.0, 0.0, 0.0, 0.0, 0.0, 0.0, 0.0, 0.0, 1.6776155300969524E9, 0.0, 2023-02-28 12:18:50.096
85.0, 26372.64446886116, -4419.20809974767, 15849.934917680612, -3304.683065972694, 14869.90033029322, 7261.947663062533, -187500.02235174447, -187500.02235174447, -0.188, -0.774, -0.634, 192.0, 0.0, 0.0, 0.0, 0.0, 0.0, 0.0, 0.0, 0.0, 0.0, 1.6776155301009583E9, 0.0, 2023-02-28 12:18:50.100
86.0, 26379.037067775378, -4423.633745149821, 16014.019073727022, -3307.1417578627775, 14954.4793313121, 7333.026210430409, -187500.02235174447, -187500.02235174447, -0.188, -0.774, -0.634, 192.0, 0.0, 0.0, 0.0, 0.0, 0.0, 0.0, 0.0, 0.0, 0.0, 1.6776155301050348E9, 0.0, 2023-02-28 12:18:50.105
87.0, 26369.336410681775, -4425.868919595351, 16065.584548185416, -3306.4041502957525, 14982.620177581333, 7338.435332588593, -187500.02235174447, -187500.02235174447, -0.188, -0.774, -0.634, 192.0, 0.0, 0.0, 0.0, 0.0, 0.0, 0.0, 0.0, 0.0, 0.0, 1.677615530109002E9, 0.0, 2023-02-28 12:18:50.109
88.0, 26340.659122545618, -4425.488939939612, 15905.546057885416, -3304.8618799283363, 14901.773917886487, 7263.646395641136, -187500.02235174447, -187500.02235174447, -0.184, -0.764, -0.628, 192.0, 250.0, 64.0, 232.0, 32.0, 236.0, 96.0, 0.0, 0.0, 0.0, 1.6776155301130428E9, 0.0, 2023-02-28 12:18:50.113
89.0, 26338.468651588995, -4428.461721952167, 15834.601620984271, -3306.873536929314, 14862.166626711683, 7249.296575700829, -187500.02235174447, -187500.02235174447, -0.184, -0.764, -0.628, 192.0, 0.0, 0.0, 0.0, 0.0, 0.0, 0.0, 0.0, 0.0, 0.0, 1.6776155301170225E9, 0.0, 2023-02-28 12:18:50.117
90.0, 26366.207166458033, -4433.624974921343, 15983.508942545528, -3309.9804294086016, 14937.871985181808, 7322.118559136219, -187500.02235174447, -187500.02235174447, -0.184, -0.764, -0.628, 192.0, 0.0, 0.0, 0.0, 0.0, 0.0, 0.0, 0.0, 0.0, 0.0, 1.6776155301219695E9, 0.0, 2023-02-28 12:18:50.121
91.0, 26379.484102664486, -4433.490864454611, 16075.016984345555, -3308.259345085543, 14989.705680573665, 7346.325498381317, -187500.02235174447, -187500.02235174447, -0.184, -0.764, -0.628, 192.0, 0.0, 0.0, 0.0, 0.0, 0.0, 0.0, 0.0, 0.0, 0.0, 1.6776155301249523E9, 0.0, 2023-02-28 12:18:50.124
92.0, 26355.679494819582, -4433.155588287782, 15936.77144488948, -3306.7617782070374, 14917.554249471934, 7277.303311503329, -187500.02235174447, -187500.02235174447, -0.184, -0.764, -0.628, 192.0, 0.0, 0.0, 0.0, 0.0, 0.0, 0.0, 0.0, 0.0, 0.0, 1.677615530128976E9, 0.0, 2023-02-28 12:18:50.128
93.0, 26357.534689609372, -4430.696896397698, 15827.627876714216, -3306.94059216268, 14861.183149955648, 7246.122627988176, -187500.02235174447, -187500.02235174447, -0.184, -0.764, -0.628, 192.0, 0.0, 0.0, 0.0, 0.0, 0.0, 0.0, 0.0, 0.0, 0.0, 1.677615530133006E9, 0.0, 2023-02-28 12:18:50.133
94.0, 26370.31988743781, -4429.959288830672, 15949.802511906924, -3309.5333945194957, 14923.678627452688, 7311.188556097574, -187500.02235174447, -187500.02235174447, -0.184, -0.764, -0.628, 192.0, 0.0, 0.0, 0.0, 0.0, 0.0, 0.0, 0.0, 0.0, 0.0, 1.6776155301370156E9, 0.0, 2023-02-28 12:18:50.137
95.0, 26384.312079466832, -4430.451027208689, 16075.776943657034, -3310.3827608087972, 14992.432593397212, 7346.638422803691, -187500.02235174447, -187500.02235174447, -0.184, -0.764, -0.628, 192.0, 0.0, 0.0, 0.0, 0.0, 0.0, 0.0, 0.0, 0.0, 0.0, 1.6776155301410117E9, 0.0, 2023-02-28 12:18:50.141
96.0, 26378.65708811964, -4430.808655119974, 15969.047363882944, -3308.907545674747, 14936.083845625382, 7285.864029629712, -187500.02235174447, -187500.02235174447, -0.184, -0.764, -0.628, 192.0, 0.0, 0.0, 0.0, 0.0, 0.0, 0.0, 0.0, 0.0, 0.0, 1.6776155301450076E9, 0.0, 2023-02-28 12:18:50.145
97.0, 26359.83691928827, -4429.981640575128, 15831.114748849244, -3308.2816968299985, 14859.596176099323, 7244.736819831946, -187500.02235174447, -187500.02235174447, -0.184, -0.764, -0.628, 192.0, 0.0, 0.0, 0.0, 0.0, 0.0, 0.0, 0.0, 0.0, 0.0, 1.6776155301500425E9, 0.0, 2023-02-28 12:18:50.150
98.0, 26379.1264747532, -4427.299431240491, 15920.029988292456, -3308.9746009081127, 14902.578580686877, 7297.531640235382, -187500.02235174447, -187500.02235174447, -0.184, -0.764, -0.628, 192.0, 0.0, 0.0, 0.0, 0.0, 0.0, 0.0, 0.0, 0.0, 0.0, 1.677615530153003E9, 0.0, 2023-02-28 12:18:50.153
99.0, 26399.89124535218, -4423.901966083285, 16071.328946510428, -3308.7063799746493, 14988.744555562087, 7356.137914197197, -187500.02235174447, -187500.02235174447, -0.184, -0.768, -0.624, 192.0, 250.0, 64.0, 232.0, 0.0, 236.0, 128.0, 0.0, 0.0, 0.0, 1.6776155301570077E9, 0.0, 2023-02-28 12:18:50.157
100.0, 26382.725105610505, -4423.231413749625, 16000.719785776113, -3307.298220073965, 14955.5298633015, 7310.585058997281, -187500.02235174447, -187500.02235174447, -0.184, -0.768, -0.624, 192.0, 0.0, 0.0, 0.0, 0.0, 0.0, 0.0, 0.0, 0.0, 0.0, 1.677615530161024E9, 0.0, 2023-02-28 12:18:50.161
101.0, 26355.970067497503, -4423.432579449723, 15841.642420487693, -3306.3370950623867, 14870.928510538162, 7249.855369312212, -187500.02235174447, -187500.02235174447, -0.184, -0.768, -0.624, 192.0, 0.0, 0.0, 0.0, 0.0, 0.0, 0.0, 0.0, 0.0, 0.0, 1.6776155301650095E9, 0.0, 2023-02-28 12:18:50.165
102.0, 26360.686285577573, -4423.253765494081, 15891.66562457867, -3307.3652753073306, 14897.795307373442, 7286.53458196337, -187500.02235174447, -187500.02235174447, -0.184, -0.768, -0.624, 192.0, 0.0, 0.0, 0.0, 0.0, 0.0, 0.0, 0.0, 0.0, 0.0, 1.6776155301691291E9, 0.0, 2023-02-28 12:18:50.169
103.0, 26387.910710324137, -4425.667753895254, 16058.722562637635, -3309.488691030585, 14987.112878216849, 7355.512065352448, -187500.02235174447, -187500.02235174447, -0.184, -0.768, -0.624, 192.0, 0.0, 0.0, 0.0, 0.0, 0.0, 0.0, 0.0, 0.0, 0.0, 1.677615530173066E9, 0.0, 2023-02-28 12:18:50.173
104.0, 26396.046745305866, -4424.1478352722925, 16028.74887332307, -3307.7676067075263, 14974.01475596604, 7327.818253972323, -187500.02235174447, -187500.02235174447, -0.184, -0.768, -0.624, 192.0, 0.0, 0.0, 0.0, 0.0, 0.0, 0.0, 0.0, 0.0, 0.0, 1.677615530178063E9, 0.0, 2023-02-28 12:18:50.178
105.0, 26371.571585127305, -4424.30429748348, 15857.80273172888, -3306.873536929314, 14885.792420600943, 7256.940872304544, -187500.02235174447, -187500.02235174447, -0.184, -0.768, -0.624, 192.0, 0.0, 0.0, 0.0, 0.0, 0.0, 0.0, 0.0, 0.0, 0.0, 1.677615530181084E9, 0.0, 2023-02-28 12:18:50.181
106.0, 26354.517204107906, -4425.690105639709, 15865.223510888043, -3309.3098770749425, 14887.357042712814, 7275.068137057798, -187500.02235174447, -187500.02235174447, -0.184, -0.768, -0.624, 192.0, 0.0, 0.0, 0.0, 0.0, 0.0, 0.0, 0.0, 0.0, 0.0, 1.6776155301860323E9, 0.0, 2023-02-28 12:18:50.186
107.0, 26383.328602710797, -4424.080780038927, 16035.677914104213, -3310.7627404645373, 14977.993366479084, 7346.884291992699, -187500.02235174447, -187500.02235174447, -0.184, -0.768, -0.624, 192.0, 0.0, 0.0, 0.0, 0.0, 0.0, 0.0, 0.0, 0.0, 0.0, 1.6776155301890206E9, 0.0, 2023-02-28 12:18:50.189
108.0, 26389.81060860284, -4421.2644602375585, 16050.139492766797, -3307.745254963071, 14986.352918905368, 7335.484902320493, -187500.02235174447, -187500.02235174447, -0.184, -0.768, -0.624, 192.0, 0.0, 0.0, 0.0, 0.0, 0.0, 0.0, 0.0, 0.0, 0.0, 1.677615530193018E9, 0.0, 2023-02-28 12:18:50.193
109.0, 26361.870928033703, -4424.952498072684, 15882.81433377437, -3307.3652753073306, 14897.974121329085, 7260.338337461751, -187500.02235174447, -187500.02235174447, -0.184, -0.772, -0.622, 192.0, 250.0, 64.0, 231.0, 224.0, 236.0, 144.0, 0.0, 0.0, 0.0, 1.6776155301970427E9, 0.0, 2023-02-28 12:18:50.197
110.0, 26371.146901982655, -4427.634707407321, 15847.632688001715, -3309.801615452959, 14876.002356529518, 7262.662918885103, -187500.02235174447, -187500.02235174447, -0.184, -0.772, -0.622, 192.0, 0.0, 0.0, 0.0, 0.0, 0.0, 0.0, 0.0, 0.0, 0.0, 1.6776155302011428E9, 0.0, 2023-02-28 12:18:50.201
111.0, 26384.1779690001, -4429.221681263648, 16010.867477758824, -3312.6626387432384, 14962.727125016108, 7336.3566203542505, -187500.02235174447, -187500.02235174447, -0.184, -0.772, -0.622, 192.0, 0.0, 0.0, 0.0, 0.0, 0.0, 0.0, 0.0, 0.0, 0.0, 1.67761553020508E9, 0.0, 2023-02-28 12:18:50.205
112.0, 26376.913652052124, -4430.048695808494, 16071.038373832509, -3312.7296939766043, 14996.701776588176, 7340.312879122839, -187500.02235174447, -187500.02235174447, -0.184, -0.772, -0.622, 192.0, 0.0, 0.0, 0.0, 0.0, 0.0, 0.0, 0.0, 0.0, 0.0, 1.6776155302080672E9, 0.0, 2023-02-28 12:18:50.208
113.0, 26360.820396044302, -4428.148797529793, 15914.620866134272, -3309.8910224307806, 14915.050854092939, 7267.982634065465, -187500.02235174447, -187500.02235174447, -0.184, -0.772, -0.622, 192.0, 0.0, 0.0, 0.0, 0.0, 0.0, 0.0, 0.0, 0.0, 0.0, 1.6776155302130735E9, 0.0, 2023-02-28 12:18:50.213
114.0, 26366.050704246845, -4428.148797529793, 15836.03213262941, -3309.6451532417723, 14871.867283805286, 7250.4812181569605, -187500.02235174447, -187500.02235174447, -0.184, -0.772, -0.622, 192.0, 0.0, 0.0, 0.0, 0.0, 0.0, 0.0, 0.0, 0.0, 0.0, 1.6776155302170978E9, 0.0, 2023-02-28 12:18:50.217
115.0, 26385.541425411873, -4429.244033008103, 15978.792724465458, -3311.813272453937, 14947.05855215294, 7323.750236481457, -187500.02235174447, -187500.02235174447, -0.184, -0.772, -0.622, 192.0, 0.0, 0.0, 0.0, 0.0, 0.0, 0.0, 0.0, 0.0, 0.0, 1.6776155302211142E9, 0.0, 2023-02-28 12:18:50.221
116.0, 26388.60361440225, -4429.40049521929, 16077.721545424647, -3311.7015137316603, 15002.312064446458, 7351.175826928119, -187500.02235174447, -187500.02235174447, -0.184, -0.772, -0.622, 192.0, 0.0, 0.0, 0.0, 0.0, 0.0, 0.0, 0.0, 0.0, 0.0, 1.6776155302250476E9, 0.0, 2023-02-28 12:18:50.225
117.0, 26375.349029940255, -4427.96998357415, 15944.795721148936, -3309.488691030585, 14931.389979289768, 7283.450041228538, -187500.02235174447, -187500.02235174447, -0.184, -0.772, -0.622, 192.0, 0.0, 0.0, 0.0, 0.0, 0.0, 0.0, 0.0, 0.0, 0.0, 1.6776155302300797E9, 0.0, 2023-02-28 12:18:50.230
118.0, 26373.247965961455, -4428.148797529793, 15829.237202314998, -3310.092188130878, 14870.526179137967, 7251.867026313189, -187500.02235174447, -187500.02235174447, -0.184, -0.772, -0.622, 192.0, 0.0, 0.0, 0.0, 0.0, 0.0, 0.0, 0.0, 0.0, 0.0, 1.67761553023312E9, 0.0, 2023-02-28 12:18:50.233
119.0, 26374.723181095505, -4428.908756841273, 15944.996886849034, -3311.8579759428476, 14927.701941454643, 7316.821195700311, -187500.02235174447, -187500.02235174447, -0.192, -0.77, -0.62, 192.0, 250.0, 0.0, 231.0, 240.0, 236.0, 160.0, 0.0, 0.0, 0.0, 1.677615530236113E9, 0.0, 2023-02-28 12:18:50.236
120.0, 26387.30721322384, -4429.534605686022, 16077.810952402468, -3312.3720660653194, 14999.49574464509, 7360.451800877071, -187500.02235174447, -187500.02235174447, -0.192, -0.77, -0.62, 192.0, 0.0, 0.0, 0.0, 0.0, 0.0, 0.0, 0.0, 0.0, 0.0, 1.6776155302411695E9, 0.0, 2023-02-28 12:18:50.241
121.0, 26377.31598345232, -4428.796998118996, 15977.87630294279, -3310.3157055754314, 14949.696057998664, 7302.270210059907, -187500.02235174447, -187500.02235174447, -0.192, -0.77, -0.62, 192.0, 0.0, 0.0, 0.0, 0.0, 0.0, 0.0, 0.0, 0.0, 0.0, 1.6776155302461443E9, 0.0, 2023-02-28 12:18:50.246
122.0, 26358.808739043325, -4429.40049521929, 15834.691027962093, -3309.801615452959, 14874.102458250816, 7254.258662969907, -187500.02235174447, -187500.02235174447, -0.192, -0.77, -0.62, 192.0, 0.0, 0.0, 0.0, 0.0, 0.0, 0.0, 0.0, 0.0, 0.0, 1.6776155302500703E9, 0.0, 2023-02-28 12:18:50.250
123.0, 26382.434532932584, -4430.83100686443, 15916.364302201786, -3311.768568965026, 14918.738891928066, 7303.186631582575, -187500.02235174447, -187500.02235174447, -0.192, -0.77, -0.62, 192.0, 0.0, 0.0, 0.0, 0.0, 0.0, 0.0, 0.0, 0.0, 0.0, 1.677615530253085E9, 0.0, 2023-02-28 12:18:50.253
124.0, 26398.997175573968, -4428.3723149743455, 16072.066554077453, -3312.349714320864, 14999.942779534196, 7358.395440387183, -187500.02235174447, -187500.02235174447, -0.192, -0.77, -0.62, 192.0, 0.0, 0.0, 0.0, 0.0, 0.0, 0.0, 0.0, 0.0, 0.0, 1.6776155302571435E9, 0.0, 2023-02-28 12:18:50.257
125.0, 26395.51030343894, -4424.661925394765, 16006.665349801226, -3309.3545805638532, 14968.091543685383, 7319.25753584594, -187500.02235174447, -187500.02235174447, -0.192, -0.77, -0.62, 192.0, 0.0, 0.0, 0.0, 0.0, 0.0, 0.0, 0.0, 0.0, 0.0, 1.6776155302612245E9, 0.0, 2023-02-28 12:18:50.261
126.0, 26379.975841042502, -4422.560861415966, 15844.391685055696, -3307.0747026294116, 14884.51837116699, 7258.706660116513, -187500.02235174447, -187500.02235174447, -0.192, -0.77, -0.62, 192.0, 0.0, 0.0, 0.0, 0.0, 0.0, 0.0, 0.0, 0.0, 0.0, 1.6776155302642078E9, 0.0, 2023-02-28 12:18:50.264
127.0, 26382.881567821692, -4421.175053259737, 15886.14474369821, -3307.968772407624, 14903.405595231725, 7291.340207021261, -187500.02235174447, -187500.02235174447, -0.192, -0.77, -0.62, 192.0, 0.0, 0.0, 0.0, 0.0, 0.0, 0.0, 0.0, 0.0, 0.0, 1.677615530268243E9, 0.0, 2023-02-28 12:18:50.268
128.0, 26403.914559354136, -4422.762027116064, 16055.548614924983, -3309.9804294086016, 14990.264474185047, 7360.74237355499, -187500.02235174447, -187500.02235174447, -0.192, -0.77, -0.62, 192.0, 0.0, 0.0, 0.0, 0.0, 0.0, 0.0, 0.0, 0.0, 0.0, 1.677615530273126E9, 0.0, 2023-02-28 12:18:50.273
129.0, 26405.009794832444, -4423.276117238536, 16033.710960592147, -3307.521737518518, 14986.978767750117, 7331.394533085172, -187500.02235174447, -187500.02235174447, -0.182, -0.772, -0.62, 192.0, 250.0, 80.0, 231.0, 224.0, 236.0, 160.0, 0.0, 0.0, 0.0, 1.6776155302771823E9, 0.0, 2023-02-28 12:18:50.277
130.0, 26376.533672396385, -4421.867957337851, 15861.75899049747, -3305.6888944731827, 14897.28121725097, 7259.4666194279935, -187500.02235174447, -187500.02235174447, -0.182, -0.772, -0.62, 192.0, 0.0, 0.0, 0.0, 0.0, 0.0, 0.0, 0.0, 0.0, 0.0, 1.6776155302812085E9, 0.0, 2023-02-28 12:18:50.281
131.0, 26381.11578000972, -4419.297506725491, 15859.926147452135, -3306.0241706400125, 14895.314263738903, 7278.756174892924, -187500.02235174447, -187500.02235174447, -0.182, -0.772, -0.62, 192.0, 0.0, 0.0, 0.0, 0.0, 0.0, 0.0, 0.0, 0.0, 0.0, 1.6776155302851439E9, 0.0, 2023-02-28 12:18:50.285
132.0, 26409.45779197905, -4419.990410803605, 16029.374722167817, -3307.745254963071, 14984.5871310934, 7352.047544961875, -187500.02235174447, -187500.02235174447, -0.182, -0.772, -0.62, 192.0, 0.0, 0.0, 0.0, 0.0, 0.0, 0.0, 0.0, 0.0, 0.0, 1.6776155302891192E9, 0.0, 2023-02-28 12:18:50.289
133.0, 26404.719222154527, -4423.879614338829, 16054.721600380135, -3308.482862530096, 14997.461735899657, 7342.033963445898, -187500.02235174447, -187500.02235174447, -0.182, -0.772, -0.62, 192.0, 0.0, 0.0, 0.0, 0.0, 0.0, 0.0, 0.0, 0.0, 0.0, 1.6776155302921336E9, 0.0, 2023-02-28 12:18:50.292
134.0, 26369.135244981677, -4427.120617284849, 15889.631615833237, -3307.4770340296072, 14907.47361272259, 7268.519075932393, -187500.02235174447, -187500.02235174447, -0.182, -0.772, -0.62, 192.0, 0.0, 0.0, 0.0, 0.0, 0.0, 0.0, 0.0, 0.0, 0.0, 1.6776155302961893E9, 0.0, 2023-02-28 12:18:50.296
135.0, 26367.771788569902, -4427.2547277515805, 15844.794016455891, -3308.773435208015, 14880.763278098499, 7264.406354952616, -187500.02235174447, -187500.02235174447, -0.182, -0.772, -0.62, 192.0, 0.0, 0.0, 0.0, 0.0, 0.0, 0.0, 0.0, 0.0, 0.0, 1.6776155303012273E9, 0.0, 2023-02-28 12:18:50.301
136.0, 26399.243044762978, -4426.204195762181, 16002.373814865807, -3310.0474846419675, 14966.77279076252, 7337.876538977211, -187500.02235174447, -187500.02235174447, -0.182, -0.772, -0.62, 192.0, 0.0, 0.0, 0.0, 0.0, 0.0, 0.0, 0.0, 0.0, 0.0, 1.6776155303051877E9, 0.0, 2023-02-28 12:18:50.305
137.0, 26405.32271925482, -4425.555995172977, 16070.144304054298, -3309.4439875416742, 15003.429651669223, 7351.019364716932, -187500.02235174447, -187500.02235174447, -0.182, -0.772, -0.62, 192.0, 0.0, 0.0, 0.0, 0.0, 0.0, 0.0, 0.0, 0.0, 0.0, 1.6776155303091404E9, 0.0, 2023-02-28 12:18:50.309
138.0, 26378.858253819737, -4426.762989373564, 15918.107738269298, -3307.834661940892, 14923.790386174964, 7278.018567325898, -187500.02235174447, -187500.02235174447, -0.182, -0.772, -0.62, 192.0, 0.0, 0.0, 0.0, 0.0, 0.0, 0.0, 0.0, 0.0, 0.0, 1.6776155303131452E9, 0.0, 2023-02-28 12:18:50.313
139.0, 26372.242137460966, -4427.187672518215, 15832.500557005473, -3307.9464206631687, 14875.287100706948, 7256.650299626625, -187500.02235174447, -187500.02235174447, -0.194, -0.77, -0.622, 192.0, 249.0, 240.0, 231.0, 240.0, 236.0, 144.0, 0.0, 0.0, 0.0, 1.6776155303161695E9, 0.0, 2023-02-28 12:18:50.316
140.0, 26382.903919566146, -4432.932070843229, 15973.651823240736, -3310.785092208993, 14943.549328273455, 7321.7385794804795, -187500.02235174447, -187500.02235174447, -0.194, -0.77, -0.622, 192.0, 0.0, 0.0, 0.0, 0.0, 0.0, 0.0, 0.0, 0.0, 0.0, 1.6776155303202574E9, 0.0, 2023-02-28 12:18:50.320
141.0, 26389.587091158282, -4435.569576688955, 16080.895493137301, -3311.32153407592, 15000.970959779139, 7351.220530417029, -187500.02235174447, -187500.02235174447, -0.194, -0.77, -0.622, 192.0, 0.0, 0.0, 0.0, 0.0, 0.0, 0.0, 0.0, 0.0, 0.0, 1.6776155303241987E9, 0.0, 2023-02-28 12:18:50.324
142.0, 26367.45886414753, -4437.40241973429, 15953.356439275318, -3310.092188130878, 14930.71942695611, 7287.540410463859, -187500.02235174447, -187500.02235174447, -0.194, -0.77, -0.622, 192.0, 0.0, 0.0, 0.0, 0.0, 0.0, 0.0, 0.0, 0.0, 0.0, 1.677615530329239E9, 0.0, 2023-02-28 12:18:50.329
143.0, 26355.970067497503, -4438.140027301315, 15831.271211060432, -3310.6062782533504, 14868.112190736794, 7248.201340222519, -187500.02235174447, -187500.02235174447, -0.194, -0.77, -0.622, 192.0, 0.0, 0.0, 0.0, 0.0, 0.0, 0.0, 0.0, 0.0, 0.0, 1.677615530333178E9, 0.0, 2023-02-28 12:18:50.333
144.0, 26368.59880311475, -4441.06810582496, 15942.761712403502, -3313.1543771212555, 14927.746644943554, 7309.243954329962, -187500.02235174447, -187500.02235174447, -0.194, -0.77, -0.622, 192.0, 0.0, 0.0, 0.0, 0.0, 0.0, 0.0, 0.0, 0.0, 0.0, 1.677615530337447E9, 0.0, 2023-02-28 12:18:50.337
145.0, 26362.250907689442, -4443.727963415142, 16081.543693726504, -3312.7296939766043, 14997.908770788763, 7354.796809529878, -187500.02235174447, -187500.02235174447, -0.194, -0.77, -0.622, 192.0, 0.0, 0.0, 0.0, 0.0, 0.0, 0.0, 0.0, 0.0, 0.0, 1.6776155303412397E9, 0.0, 2023-02-28 12:18:50.341
146.0, 26325.30347410482, -4447.259539039081, 15986.057041413433, -3311.388589309286, 14948.645526009266, 7298.090433846764, -187500.02235174447, -187500.02235174447, -0.194, -0.77, -0.622, 192.0, 0.0, 0.0, 0.0, 0.0, 0.0, 0.0, 0.0, 0.0, 0.0, 1.6776155303443148E9, 0.0, 2023-02-28 12:18:50.344
147.0, 26292.289947544334, -4452.512198986077, 15838.46847277504, -3311.9920864095793, 14868.335708181348, 7247.307270444307, -187500.02235174447, -187500.02235174447, -0.194, -0.77, -0.622, 192.0, 0.0, 0.0, 0.0, 0.0, 0.0, 0.0, 0.0, 0.0, 0.0, 1.677615530348238E9, 0.0, 2023-02-28 12:18:50.348
148.0, 26284.690354429527, -4460.827047923452, 15915.470232423573, -3314.94251667768, 14906.780708644475, 7295.654093701136, -187500.02235174447, -187500.02235174447, -0.194, -0.77, -0.622, 192.0, 0.0, 0.0, 0.0, 0.0, 0.0, 0.0, 0.0, 0.0, 0.0, 1.6776155303522532E9, 0.0, 2023-02-28 12:18:50.352
149.0, 26298.146104591622, -4468.136068360337, 16078.302690780485, -3318.027057412512, 14990.10801197386, 7354.282719407406, -187500.02235174447, -187500.02235174447, -0.19, -0.764, -0.62, 192.0, 250.0, 16.0, 232.0, 32.0, 236.0, 160.0, 0.0, 0.0, 0.0, 1.677615530357257E9, 0.0, 2023-02-28 12:18:50.357
150.0, 26269.53587168883, -4473.5675422629765, 16023.920896520722, -3318.317630090431, 14959.888453470285, 7313.356675309739, -187500.02235174447, -187500.02235174447, -0.19, -0.764, -0.62, 192.0, 0.0, 0.0, 0.0, 0.0, 0.0, 0.0, 0.0, 0.0, 0.0, 1.6776155303613155E9, 0.0, 2023-02-28 12:18:50.361
151.0, 26223.580685088717, -4479.490754543634, 15859.076781162834, -3318.809368468448, 14867.575748869867, 7249.631851867659, -187500.02235174447, -187500.02235174447, -0.19, -0.764, -0.62, 192.0, 0.0, 0.0, 0.0, 0.0, 0.0, 0.0, 0.0, 0.0, 0.0, 1.6776155303652844E9, 0.0, 2023-02-28 12:18:50.365
152.0, 26217.053975707768, -4484.74341449063, 15893.029080990444, -3320.843377213881, 14885.367737456292, 7280.253741771429, -187500.02235174447, -187500.02235174447, -0.19, -0.764, -0.62, 192.0, 0.0, 0.0, 0.0, 0.0, 0.0, 0.0, 0.0, 0.0, 0.0, 1.6776155303693125E9, 0.0, 2023-02-28 12:18:50.369
153.0, 26243.87606905414, -4485.905705202306, 16064.042277817998, -3322.586813281395, 14974.417087366235, 7350.304108894362, -187500.02235174447, -187500.02235174447, -0.19, -0.764, -0.62, 192.0, 0.0, 0.0, 0.0, 0.0, 0.0, 0.0, 0.0, 0.0, 0.0, 1.6776155303723211E9, 0.0, 2023-02-28 12:18:50.372
154.0, 26224.76532754485, -4486.911533702795, 16051.078266033921, -3321.938612692191, 14964.917595972729, 7324.510195792937, -187500.02235174447, -187500.02235174447, -0.19, -0.764, -0.62, 192.0, 0.0, 0.0, 0.0, 0.0, 0.0, 0.0, 0.0, 0.0, 0.0, 1.6776155303763168E9, 0.0, 2023-02-28 12:18:50.376
155.0, 26169.444760017963, -4491.337179104946, 15878.634557561227, -3321.156301636255, 14872.04609776093, 7257.2314449824635, -187500.02235174447, -187500.02235174447, -0.19, -0.764, -0.62, 192.0, 0.0, 0.0, 0.0, 0.0, 0.0, 0.0, 0.0, 0.0, 0.0, 1.6776155303802404E9, 0.0, 2023-02-28 12:18:50.380
156.0, 26171.121140852112, -4493.035911683549, 15868.62097604525, -3321.6256882698167, 14863.977118012563, 7274.509343446415, -187500.02235174447, -187500.02235174447, -0.19, -0.764, -0.62, 192.0, 0.0, 0.0, 0.0, 0.0, 0.0, 0.0, 0.0, 0.0, 0.0, 1.6776155303852773E9, 0.0, 2023-02-28 12:18:50.385
157.0, 26206.36984185813, -4493.818222739485, 16038.471882161128, -3322.497406303574, 14950.43366556569, 7350.728792039013, -187500.02235174447, -187500.02235174447, -0.19, -0.764, -0.62, 192.0, 0.0, 0.0, 0.0, 0.0, 0.0, 0.0, 0.0, 0.0, 0.0, 1.677615530389306E9, 0.0, 2023-02-28 12:18:50.389
158.0, 26203.017080189835, -4498.154461163815, 16070.792504643501, -3322.184481881199, 14969.499703586067, 7344.269137891429, -187500.02235174447, -187500.02235174447, -0.19, -0.764, -0.62, 192.0, 0.0, 0.0, 0.0, 0.0, 0.0, 0.0, 0.0, 0.0, 0.0, 1.6776155303933525E9, 0.0, 2023-02-28 12:18:50.393
159.0, 26164.482672748887, -4501.440167598745, 15903.28853169543, -3321.5362812919952, 14883.04315603294, 7266.909750331611, -187500.02235174447, -187500.02235174447, -0.186, -0.774, -0.626, 192.0, 250.0, 48.0, 231.0, 208.0, 236.0, 112.0, 0.0, 0.0, 0.0, 1.677615530397328E9, 0.0, 2023-02-28 12:18:50.397
160.0, 26152.65859993203, -4501.551926321021, 15850.091379891799, -3322.832682470403, 14852.84594927382, 7261.590035151248, -187500.02235174447, -187500.02235174447, -0.186, -0.774, -0.626, 192.0, 0.0, 0.0, 0.0, 0.0, 0.0, 0.0, 0.0, 0.0, 0.0, 1.6776155304003606E9, 0.0, 2023-02-28 12:18:50.400
161.0, 26177.871367677613, -4502.870679243884, 16008.83346901339, -3324.8890429602916, 14936.687342725676, 7334.859053475744, -187500.02235174447, -187500.02235174447, -0.186, -0.774, -0.626, 192.0, 0.0, 0.0, 0.0, 0.0, 0.0, 0.0, 0.0, 0.0, 0.0, 1.6776155304063847E9, 0.0, 2023-02-28 12:18:50.406
162.0, 26186.208568359445, -4503.250658899625, 16084.51647573906, -3324.2408423710876, 14975.95935773365, 7352.6733938066245, -187500.02235174447, -187500.02235174447, -0.186, -0.774, -0.626, 192.0, 0.0, 0.0, 0.0, 0.0, 0.0, 0.0, 0.0, 0.0, 0.0, 1.6776155304093833E9, 0.0, 2023-02-28 12:18:50.409
163.0, 26160.437007002474, -4500.3896356093455, 15934.178642532665, -3322.296240603476, 14899.248170763038, 7284.008834839921, -187500.02235174447, -187500.02235174447, -0.186, -0.774, -0.626, 192.0, 0.0, 0.0, 0.0, 0.0, 0.0, 0.0, 0.0, 0.0, 0.0, 1.6776155304134324E9, 0.0, 2023-02-28 12:18:50.413
164.0, 26145.573096939697, -4500.143766420337, 15839.474301275528, -3321.8268539699143, 14845.715742792576, 7265.970977064488, -187500.02235174447, -187500.02235174447, -0.186, -0.774, -0.626, 192.0, 0.0, 0.0, 0.0, 0.0, 0.0, 0.0, 0.0, 0.0, 0.0, 1.6776155304173577E9, 0.0, 2023-02-28 12:18:50.417
165.0, 26175.74795195436, -4499.361455364401, 15975.417611052706, -3323.3691243373305, 14913.173307558693, 7337.273041876918, -187500.02235174447, -187500.02235174447, -0.186, -0.774, -0.626, 192.0, 0.0, 0.0, 0.0, 0.0, 0.0, 0.0, 0.0, 0.0, 0.0, 1.6776155304213812E9, 0.0, 2023-02-28 12:18:50.421
166.0, 26188.197873615965, -4497.707426274708, 16091.46786826466, -3323.7267522486154, 14973.500665843567, 7373.974606272532, -187500.02235174447, -187500.02235174447, -0.186, -0.774, -0.626, 192.0, 0.0, 0.0, 0.0, 0.0, 0.0, 0.0, 0.0, 0.0, 0.0, 1.6776155304243717E9, 0.0, 2023-02-28 12:18:50.424
167.0, 26168.438931517474, -4495.98634195165, 15968.600328993838, -3321.6927435031826, 14909.507621468023, 7309.959210152532, -187500.02235174447, -187500.02235174447, -0.186, -0.774, -0.626, 192.0, 0.0, 0.0, 0.0, 0.0, 0.0, 0.0, 0.0, 0.0, 0.0, 1.6776155304283688E9, 0.0, 2023-02-28 12:18:50.428
168.0, 26151.876288876094, -4497.394501852334, 15840.256612331465, -3321.8268539699143, 14843.346457880314, 7266.753288120424, -187500.02235174447, -187500.02235174447, -0.186, -0.774, -0.626, 192.0, 0.0, 0.0, 0.0, 0.0, 0.0, 0.0, 0.0, 0.0, 0.0, 1.677615530432378E9, 0.0, 2023-02-28 12:18:50.432
169.0, 26162.359257025633, -4502.55775482151, 15947.030895594466, -3325.4031330827634, 14897.840010862354, 7327.214756872029, -187500.02235174447, -187500.02235174447, -0.192, -0.776, -0.624, 192.0, 250.0, 0.0, 231.0, 192.0, 236.0, 128.0, 0.0, 0.0, 0.0, 1.6776155304364402E9, 0.0, 2023-02-28 12:18:50.436
170.0, 26191.975318428915, -4499.920248975784, 16090.931426397734, -3326.073685416423, 14975.288805399992, 7379.3837284307165, -187500.02235174447, -187500.02235174447, -0.192, -0.776, -0.624, 192.0, 0.0, 0.0, 0.0, 0.0, 0.0, 0.0, 0.0, 0.0, 0.0, 1.6776155304403782E9, 0.0, 2023-02-28 12:18:50.440
171.0, 26182.207606101943, -4497.707426274708, 16001.390338109773, -3324.553766793462, 14925.310304797926, 7329.44993131756, -187500.02235174447, -187500.02235174447, -0.192, -0.776, -0.624, 192.0, 0.0, 0.0, 0.0, 0.0, 0.0, 0.0, 0.0, 0.0, 0.0, 1.6776155304454615E9, 0.0, 2023-02-28 12:18:50.445
172.0, 26156.25723078933, -4499.897897231329, 15847.744446723993, -3325.581947038406, 14847.995620727019, 7269.435497455061, -187500.02235174447, -187500.02235174447, -0.192, -0.776, -0.624, 192.0, 0.0, 0.0, 0.0, 0.0, 0.0, 0.0, 0.0, 0.0, 0.0, 1.6776155304495125E9, 0.0, 2023-02-28 12:18:50.449
173.0, 26169.824739673706, -4498.065054185993, 15916.990151046533, -3326.811292983448, 14887.245283990536, 7314.742483465968, -187500.02235174447, -187500.02235174447, -0.192, -0.776, -0.624, 192.0, 0.0, 0.0, 0.0, 0.0, 0.0, 0.0, 0.0, 0.0, 0.0, 1.6776155304524364E9, 0.0, 2023-02-28 12:18:50.452
174.0, 26198.457324320952, -4496.3439698629345, 16083.063612349466, -3326.766589494537, 14975.10999144435, 7375.583931873314, -187500.02235174447, -187500.02235174447, -0.192, -0.776, -0.624, 192.0, 0.0, 0.0, 0.0, 0.0, 0.0, 0.0, 0.0, 0.0, 0.0, 1.6776155304564052E9, 0.0, 2023-02-28 12:18:50.456
175.0, 26195.484542308397, -4492.611228538898, 16033.196870469676, -3323.2126621261436, 14952.735895244587, 7338.010649443942, -187500.02235174447, -187500.02235174447, -0.192, -0.776, -0.624, 192.0, 0.0, 0.0, 0.0, 0.0, 0.0, 0.0, 0.0, 0.0, 0.0, 1.6776155304604666E9, 0.0, 2023-02-28 12:18:50.460
176.0, 26175.636193232083, -4490.2419436266355, 15862.317784108853, -3321.268060358532, 14861.317260422382, 7272.67650040108, -187500.02235174447, -187500.02235174447, -0.192, -0.776, -0.624, 192.0, 0.0, 0.0, 0.0, 0.0, 0.0, 0.0, 0.0, 0.0, 0.0, 1.6776155304643412E9, 0.0, 2023-02-28 12:18:50.464
177.0, 26180.866501434626, -4491.1807168937585, 15889.162229199675, -3323.190310381688, 14872.247263461026, 7304.080701360786, -187500.02235174447, -187500.02235174447, -0.192, -0.776, -0.624, 192.0, 0.0, 0.0, 0.0, 0.0, 0.0, 0.0, 0.0, 0.0, 0.0, 1.677615530468444E9, 0.0, 2023-02-28 12:18:50.468
178.0, 26211.242522149387, -4491.895972716328, 16063.259966762063, -3325.51489180504, 14964.96229946164, 7373.952254528076, -187500.02235174447, -187500.02235174447, -0.192, -0.776, -0.624, 192.0, 0.0, 0.0, 0.0, 0.0, 0.0, 0.0, 0.0, 0.0, 0.0, 1.6776155304743755E9, 0.0, 2023-02-28 12:18:50.474
179.0, 26198.61378653214, -4495.695769273731, 16059.303707993473, -3326.028981927512, 14964.336450616891, 7350.438219361094, -187500.02235174447, -187500.02235174447, -0.19, -0.774, -0.624, 192.0, 250.0, 16.0, 231.0, 208.0, 236.0, 128.0, 0.0, 0.0, 0.0, 1.6776155304774268E9, 0.0, 2023-02-28 12:18:50.477
180.0, 26167.455454761443, -4498.623847797376, 15885.80946753138, -3324.6208220268277, 14868.581577370356, 7274.308177746318, -187500.02235174447, -187500.02235174447, -0.19, -0.774, -0.624, 192.0, 0.0, 0.0, 0.0, 0.0, 0.0, 0.0, 0.0, 0.0, 0.0, 1.6776155304813533E9, 0.0, 2023-02-28 12:18:50.481
181.0, 26171.814044930226, -4498.243868141636, 15868.28569987842, -3324.9337464492023, 14856.064600475383, 7288.702701175535, -187500.02235174447, -187500.02235174447, -0.19, -0.774, -0.624, 192.0, 0.0, 0.0, 0.0, 0.0, 0.0, 0.0, 0.0, 0.0, 0.0, 1.677615530484413E9, 0.0, 2023-02-28 12:18:50.484
182.0, 26213.00830996136, -4495.673417529276, 16037.667219360737, -3325.649002271772, 14950.031334165495, 7366.263254435451, -187500.02235174447, -187500.02235174447, -0.19, -0.774, -0.624, 192.0, 0.0, 0.0, 0.0, 0.0, 0.0, 0.0, 0.0, 0.0, 0.0, 1.6776155304884129E9, 0.0, 2023-02-28 12:18:50.488
183.0, 26210.90724598256, -4494.824051239973, 16078.526208225037, -3324.151435393266, 14973.500665843567, 7366.419716646638, -187500.02235174447, -187500.02235174447, -0.19, -0.774, -0.624, 192.0, 0.0, 0.0, 0.0, 0.0, 0.0, 0.0, 0.0, 0.0, 0.0, 1.6776155304923737E9, 0.0, 2023-02-28 12:18:50.492
184.0, 26175.144454854068, -4495.449900084723, 15912.542153899927, -3322.3856475812972, 14885.591254900844, 7289.552067464837, -187500.02235174447, -187500.02235174447, -0.19, -0.774, -0.624, 192.0, 0.0, 0.0, 0.0, 0.0, 0.0, 0.0, 0.0, 0.0, 0.0, 1.677615530496403E9, 0.0, 2023-02-28 12:18:50.496
185.0, 26157.419521501008, -4499.987304209149, 15850.22549035853, -3324.0173249265345, 14849.292021905427, 7283.003006339432, -187500.02235174447, -187500.02235174447, -0.19, -0.774, -0.624, 192.0, 0.0, 0.0, 0.0, 0.0, 0.0, 0.0, 0.0, 0.0, 0.0, 1.6776155305014112E9, 0.0, 2023-02-28 12:18:50.501
186.0, 26190.61186201714, -4499.428510597767, 16006.486535845583, -3326.2301476276098, 14933.37928454629, 7359.513027609948, -187500.02235174447, -187500.02235174447, -0.19, -0.774, -0.624, 192.0, 0.0, 0.0, 0.0, 0.0, 0.0, 0.0, 0.0, 0.0, 0.0, 1.6776155305054026E9, 0.0, 2023-02-28 12:18:50.505
187.0, 26221.256103665368, -4497.148632663326, 16092.13842059832, -3325.4701883161297, 14979.669747313232, 7378.176734230129, -187500.02235174447, -187500.02235174447, -0.19, -0.774, -0.624, 192.0, 0.0, 0.0, 0.0, 0.0, 0.0, 0.0, 0.0, 0.0, 0.0, 1.677615530508416E9, 0.0, 2023-02-28 12:18:50.508
188.0, 26189.583681772197, -4501.551926321021, 15945.890956627245, -3324.0173249265345, 14900.90219985273, 7307.9252014071, -187500.02235174447, -187500.02235174447, -0.19, -0.774, -0.624, 192.0, 0.0, 0.0, 0.0, 0.0, 0.0, 0.0, 0.0, 0.0, 0.0, 1.6776155305125177E9, 0.0, 2023-02-28 12:18:50.512
189.0, 26163.52154773731, -4503.5635833219985, 15844.794016455891, -3323.838510970892, 14846.252184659505, 7281.43838422756, -187500.02235174447, -187500.02235174447, -0.196, -0.774, -0.626, 192.0, 249.0, 224.0, 231.0, 208.0, 236.0, 112.0, 0.0, 0.0, 0.0, 1.6776155305164344E9, 0.0, 2023-02-28 12:18:50.516
190.0, 26195.193969630476, -4500.233173398158, 15978.993890165555, -3325.8278162274146, 14916.906048882729, 7345.587890814292, -187500.02235174447, -187500.02235174447, -0.196, -0.774, -0.626, 192.0, 0.0, 0.0, 0.0, 0.0, 0.0, 0.0, 0.0, 0.0, 0.0, 1.6776155305204551E9, 0.0, 2023-02-28 12:18:50.520
191.0, 26214.081193695212, -4499.361455364401, 16102.934313170234, -3326.721886005627, 14981.100258958371, 7384.457574422071, -187500.02235174447, -187500.02235174447, -0.196, -0.774, -0.626, 192.0, 0.0, 0.0, 0.0, 0.0, 0.0, 0.0, 0.0, 0.0, 0.0, 1.677615530524396E9, 0.0, 2023-02-28 12:18:50.524
192.0, 26187.683783493496, -4500.4119873538, 15983.754811734536, -3324.9337464492023, 14918.80594716143, 7324.018457414921, -187500.02235174447, -187500.02235174447, -0.196, -0.774, -0.626, 192.0, 0.0, 0.0, 0.0, 0.0, 0.0, 0.0, 0.0, 0.0, 0.0, 1.6776155305294416E9, 0.0, 2023-02-28 12:18:50.529
193.0, 26158.76062616833, -4504.524708333577, 15850.024324658434, -3325.51489180504, 14842.541795079924, 7278.689119659558, -187500.02235174447, -187500.02235174447, -0.196, -0.774, -0.626, 192.0, 0.0, 0.0, 0.0, 0.0, 0.0, 0.0, 0.0, 0.0, 0.0, 1.6776155305334556E9, 0.0, 2023-02-28 12:18:50.533
194.0, 26185.47096079242, -4505.374074622879, 15951.702410185626, -3328.1747493952216, 14894.062566049406, 7332.847396474767, -187500.02235174447, -187500.02235174447, -0.196, -0.774, -0.626, 192.0, 0.0, 0.0, 0.0, 0.0, 0.0, 0.0, 0.0, 0.0, 0.0, 1.6776155305375135E9, 0.0, 2023-02-28 12:18:50.537
195.0, 26217.031623963314, -4504.725874033675, 16102.733147470135, -3328.644136028783, 14972.852465254364, 7386.625693634235, -187500.02235174447, -187500.02235174447, -0.196, -0.774, -0.626, 192.0, 0.0, 0.0, 0.0, 0.0, 0.0, 0.0, 0.0, 0.0, 0.0, 1.6776155305404615E9, 0.0, 2023-02-28 12:18:50.540
196.0, 26199.79842898827, -4506.55871707901, 16020.657541830247, -3327.995935439579, 14929.020694377507, 7331.550995296359, -187500.02235174447, -187500.02235174447, -0.196, -0.774, -0.626, 192.0, 0.0, 0.0, 0.0, 0.0, 0.0, 0.0, 0.0, 0.0, 0.0, 1.6776155305455298E9, 0.0, 2023-02-28 12:18:50.545
197.0, 26178.60897524464, -4505.9105164898065, 15861.33430735282, -3327.4371418281967, 14843.860548002785, 7272.452982956527, -187500.02235174447, -187500.02235174447, -0.196, -0.774, -0.626, 192.0, 0.0, 0.0, 0.0, 0.0, 0.0, 0.0, 0.0, 0.0, 0.0, 1.677615530549493E9, 0.0, 2023-02-28 12:18:50.549
198.0, 26196.535074297797, -4500.948429220728, 15920.745244115025, -3327.32538310592, 14874.683603606654, 7319.25753584594, -187500.02235174447, -187500.02235174447, -0.196, -0.774, -0.626, 192.0, 0.0, 0.0, 0.0, 0.0, 0.0, 0.0, 0.0, 0.0, 0.0, 1.6776155305525177E9, 0.0, 2023-02-28 12:18:50.552
199.0, 26226.441708378996, -4495.204030895714, 16088.18216182973, -3327.0124586835454, 14964.403505850258, 7389.173792502141, -187500.02235174447, -187500.02235174447, -0.194, -0.774, -0.628, 192.0, 249.0, 240.0, 231.0, 208.0, 236.0, 96.0, 0.0, 0.0, 0.0, 1.6776155305575516E9, 0.0, 2023-02-28 12:18:50.557
200.0, 26211.846019249682, -4495.963990207194, 16047.636097387804, -3326.2972028609756, 14947.57264227541, 7352.226358917518, -187500.02235174447, -187500.02235174447, -0.194, -0.774, -0.628, 192.0, 0.0, 0.0, 0.0, 0.0, 0.0, 0.0, 0.0, 0.0, 0.0, 1.6776155305615501E9, 0.0, 2023-02-28 12:18:50.561
201.0, 26178.2289955889, -4498.802661753019, 15875.102981937289, -3325.5372435494955, 14855.930490008652, 7279.985520837966, -187500.02235174447, -187500.02235174447, -0.194, -0.774, -0.628, 192.0, 0.0, 0.0, 0.0, 0.0, 0.0, 0.0, 0.0, 0.0, 0.0, 1.677615530564477E9, 0.0, 2023-02-28 12:18:50.564
202.0, 26188.019059660324, -4500.501394331622, 15894.124316468755, -3326.9454034501796, 14863.150103467717, 7304.550087994348, -187500.02235174447, -187500.02235174447, -0.194, -0.774, -0.628, 192.0, 0.0, 0.0, 0.0, 0.0, 0.0, 0.0, 0.0, 0.0, 0.0, 1.677615530568539E9, 0.0, 2023-02-28 12:18:50.568
203.0, 26218.015100719345, -4501.753092021119, 16069.540806954004, -3327.772417995026, 14951.998287677561, 7377.5061818964705, -187500.02235174447, -187500.02235174447, -0.194, -0.774, -0.628, 192.0, 0.0, 0.0, 0.0, 0.0, 0.0, 0.0, 0.0, 0.0, 0.0, 1.6776155305725467E9, 0.0, 2023-02-28 12:18:50.572
204.0, 26208.3367953702, -4503.585935066454, 16075.41931574575, -3327.8841767173026, 14956.602747035355, 7362.731678811512, -187500.02235174447, -187500.02235174447, -0.194, -0.774, -0.628, 192.0, 0.0, 0.0, 0.0, 0.0, 0.0, 0.0, 0.0, 0.0, 0.0, 1.6776155305765953E9, 0.0, 2023-02-28 12:18:50.576
205.0, 26179.90537642305, -4503.809452511007, 15901.679206094648, -3326.766589494537, 14868.447466903624, 7287.5180587194045, -187500.02235174447, -187500.02235174447, -0.194, -0.774, -0.628, 192.0, 0.0, 0.0, 0.0, 0.0, 0.0, 0.0, 0.0, 0.0, 0.0, 1.677615530580553E9, 0.0, 2023-02-28 12:18:50.580
206.0, 26182.922861924515, -4503.585935066454, 15875.415906359662, -3327.191272639188, 14854.477626619057, 7296.481108245982, -187500.02235174447, -187500.02235174447, -0.194, -0.774, -0.628, 192.0, 0.0, 0.0, 0.0, 0.0, 0.0, 0.0, 0.0, 0.0, 0.0, 1.6776155305846024E9, 0.0, 2023-02-28 12:18:50.584
207.0, 26219.065632708745, -4500.590801309443, 16044.663315375248, -3327.70536276166, 14945.6280405078, 7372.968777772043, -187500.02235174447, -187500.02235174447, -0.194, -0.774, -0.628, 192.0, 0.0, 0.0, 0.0, 0.0, 0.0, 0.0, 0.0, 0.0, 0.0, 1.67761553058957E9, 0.0, 2023-02-28 12:18:50.589
208.0, 26235.829441050228, -4497.260391385602, 16093.725394454646, -3326.2077958831546, 14973.210093165648, 7374.376937672728, -187500.02235174447, -187500.02235174447, -0.194, -0.774, -0.628, 192.0, 0.0, 0.0, 0.0, 0.0, 0.0, 0.0, 0.0, 0.0, 0.0, 1.6776155305925243E9, 0.0, 2023-02-28 12:18:50.592
209.0, 26218.99857747538, -4494.980513451161, 15927.96485757409, -3324.3302493489086, 14885.434792689657, 7296.190535568063, -187500.02235174447, -187500.02235174447, -0.194, -0.778, -0.632, 192.0, 249.0, 240.0, 231.0, 176.0, 236.0, 64.0, 0.0, 0.0, 0.0, 1.6776155305965476E9, 0.0, 2023-02-28 12:18:50.596
210.0, 26189.628385261105, -4499.920248975784, 15856.99806892849, -3325.6266505273165, 14841.893594490719, 7285.238180784962, -187500.02235174447, -187500.02235174447, -0.194, -0.778, -0.632, 192.0, 0.0, 0.0, 0.0, 0.0, 0.0, 0.0, 0.0, 0.0, 0.0, 1.6776155306006043E9, 0.0, 2023-02-28 12:18:50.600
211.0, 26207.174504658524, -4503.898859488829, 16011.135698692287, -3328.1523976507665, 14919.364740772813, 7362.463457878049, -187500.02235174447, -187500.02235174447, -0.194, -0.778, -0.632, 192.0, 0.0, 0.0, 0.0, 0.0, 0.0, 0.0, 0.0, 0.0, 0.0, 1.6776155306045084E9, 0.0, 2023-02-28 12:18:50.604
212.0, 26233.035472993313, -4500.121414675881, 16103.783679459535, -3327.6606592727494, 14967.979784963107, 7386.201010489584, -187500.02235174447, -187500.02235174447, -0.194, -0.778, -0.632, 192.0, 0.0, 0.0, 0.0, 0.0, 0.0, 0.0, 0.0, 0.0, 0.0, 1.6776155306085627E9, 0.0, 2023-02-28 12:18:50.608
213.0, 26212.42716460552, -4499.897897231329, 15959.726686445081, -3326.073685416423, 14890.128659025271, 7314.586021254781, -187500.02235174447, -187500.02235174447, -0.194, -0.778, -0.632, 192.0, 0.0, 0.0, 0.0, 0.0, 0.0, 0.0, 0.0, 0.0, 0.0, 1.6776155306125655E9, 0.0, 2023-02-28 12:18:50.612
214.0, 26183.41460030253, -4503.585935066454, 15849.487882791505, -3326.5877755388947, 14832.595268797311, 7277.750346392435, -187500.02235174447, -187500.02235174447, -0.194, -0.778, -0.632, 192.0, 0.0, 0.0, 0.0, 0.0, 0.0, 0.0, 0.0, 0.0, 0.0, 1.677615530616548E9, 0.0, 2023-02-28 12:18:50.616
215.0, 26201.072478422222, -4508.413911868801, 15977.652785498238, -3330.4322755852077, 14897.571789928888, 7341.385762856694, -187500.02235174447, -187500.02235174447, -0.194, -0.778, -0.632, 192.0, 0.0, 0.0, 0.0, 0.0, 0.0, 0.0, 0.0, 0.0, 0.0, 1.6776155306196325E9, 0.0, 2023-02-28 12:18:50.619
216.0, 26228.967455502447, -4509.710313047208, 16109.103394639898, -3331.907490719258, 14965.364630861835, 7384.658740122169, -187500.02235174447, -187500.02235174447, -0.194, -0.778, -0.632, 192.0, 0.0, 0.0, 0.0, 0.0, 0.0, 0.0, 0.0, 0.0, 0.0, 1.6776155306256127E9, 0.0, 2023-02-28 12:18:50.625
217.0, 26209.94612097098, -4507.0281037125715, 15995.44477408466, -3329.1135226623446, 14907.227743533582, 7325.471320804516, -187500.02235174447, -187500.02235174447, -0.194, -0.778, -0.632, 192.0, 0.0, 0.0, 0.0, 0.0, 0.0, 0.0, 0.0, 0.0, 0.0, 1.6776155306296117E9, 0.0, 2023-02-28 12:18:50.629
218.0, 26182.520530524318, -4508.391560124345, 15855.075818905332, -3328.8900052177914, 14829.667190273667, 7277.750346392435, -187500.02235174447, -187500.02235174447, -0.194, -0.778, -0.632, 192.0, 0.0, 0.0, 0.0, 0.0, 0.0, 0.0, 0.0, 0.0, 0.0, 1.6776155306325955E9, 0.0, 2023-02-28 12:18:50.632
219.0, 26199.105524910156, -4509.062112458005, 15948.841386895347, -3331.616918041339, 14878.684565864154, 7327.415922572127, -187500.02235174447, -187500.02235174447, -0.194, -0.774, -0.63, 192.0, 249.0, 240.0, 231.0, 208.0, 236.0, 80.0, 0.0, 0.0, 0.0, 1.6776155306366253E9, 0.0, 2023-02-28 12:18:50.636
220.0, 26237.796394562294, -4504.4129496113, 16103.873086437356, -3330.2087581406545, 14963.509436072045, 7385.418699433649, -187500.02235174447, -187500.02235174447, -0.194, -0.774, -0.63, 192.0, 0.0, 0.0, 0.0, 0.0, 0.0, 0.0, 0.0, 0.0, 0.0, 1.6776155306405253E9, 0.0, 2023-02-28 12:18:50.640
221.0, 26222.753670543872, -4502.22247865468, 16025.999608755066, -3327.4371418281967, 14928.48425251058, 7335.909585465144, -187500.02235174447, -187500.02235174447, -0.194, -0.774, -0.63, 192.0, 0.0, 0.0, 0.0, 0.0, 0.0, 0.0, 0.0, 0.0, 0.0, 1.6776155306435905E9, 0.0, 2023-02-28 12:18:50.643
222.0, 26193.495237051873, -4506.648124056831, 15862.407191086673, -3328.733543006604, 14842.899422991208, 7267.088564287254, -187500.02235174447, -187500.02235174447, -0.194, -0.774, -0.63, 192.0, 0.0, 0.0, 0.0, 0.0, 0.0, 0.0, 0.0, 0.0, 0.0, 1.6776155306475725E9, 0.0, 2023-02-28 12:18:50.647
223.0, 26220.786717031806, -4507.765711279597, 15915.067901023378, -3330.901662218769, 14865.765257568986, 7315.569498010815, -187500.02235174447, -187500.02235174447, -0.194, -0.774, -0.63, 192.0, 0.0, 0.0, 0.0, 0.0, 0.0, 0.0, 0.0, 0.0, 0.0, 1.6776155306525624E9, 0.0, 2023-02-28 12:18:50.652
224.0, 26249.106377256678, -4505.686999045253, 16088.18216182973, -3331.3710488523307, 14958.05561042495, 7382.758841843467, -187500.02235174447, -187500.02235174447, -0.194, -0.774, -0.63, 192.0, 0.0, 0.0, 0.0, 0.0, 0.0, 0.0, 0.0, 0.0, 0.0, 1.677615530656614E9, 0.0, 2023-02-28 12:18:50.656
225.0, 26241.797356819792, -4503.965914722195, 16053.648716646281, -3328.5547290509617, 14949.204319620649, 7347.934823982099, -187500.02235174447, -187500.02235174447, -0.194, -0.774, -0.63, 192.0, 0.0, 0.0, 0.0, 0.0, 0.0, 0.0, 0.0, 0.0, 0.0, 1.6776155306605625E9, 0.0, 2023-02-28 12:18:50.660
226.0, 26220.80906877626, -4500.456690842711, 15875.9970517155, -3326.364258094342, 14858.791513298931, 7277.549180692337, -187500.02235174447, -187500.02235174447, -0.194, -0.774, -0.63, 192.0, 0.0, 0.0, 0.0, 0.0, 0.0, 0.0, 0.0, 0.0, 0.0, 1.6776155306646063E9, 0.0, 2023-02-28 12:18:50.664
227.0, 26232.90136252658, -4497.774481508074, 15886.52472335395, -3327.5265488060177, 14862.79247555643, 7302.694893204558, -187500.02235174447, -187500.02235174447, -0.194, -0.774, -0.63, 192.0, 0.0, 0.0, 0.0, 0.0, 0.0, 0.0, 0.0, 0.0, 0.0, 1.6776155306686077E9, 0.0, 2023-02-28 12:18:50.668
228.0, 26252.10151101369, -4500.993132709638, 16067.752667397579, -3330.4099238407525, 14953.96524118963, 7382.423565676638, -187500.02235174447, -187500.02235174447, -0.194, -0.774, -0.63, 192.0, 0.0, 0.0, 0.0, 0.0, 0.0, 0.0, 0.0, 0.0, 0.0, 1.677615530671635E9, 0.0, 2023-02-28 12:18:50.671
229.0, 26240.43390040802, -4506.89399324584, 16083.622405960848, -3331.415752341241, 14960.067267425928, 7371.918245782644, -187500.02235174447, -187500.02235174447, -0.194, -0.774, -0.63, 192.0, 0.0, 0.0, 0.0, 0.0, 0.0, 0.0, 0.0, 0.0, 0.0, 1.677615530675613E9, 0.0, 2023-02-28 12:18:50.675
230.0, 26210.57196981573, -4509.0844642024595, 15908.876467809258, -3330.655793029761, 14867.307527936404, 7294.4470995005495, -187500.02235174447, -187500.02235174447, -0.19, -0.772, -0.626, 192.0, 250.0, 16.0, 231.0, 224.0, 236.0, 112.0, 0.0, 0.0, 0.0, 1.6776155306806037E9, 0.0, 2023-02-28 12:18:50.680
231.0, 26210.99665296038, -4508.1456909353365, 15874.007746458978, -3331.035772685501, 14850.856644017298, 7295.050596600842, -187500.02235174447, -187500.02235174447, -0.19, -0.772, -0.626, 192.0, 0.0, 0.0, 0.0, 0.0, 0.0, 0.0, 0.0, 0.0, 0.0, 1.6776155306846192E9, 0.0, 2023-02-28 12:18:50.684
232.0, 26241.260914952865, -4510.17969968077, 16043.724542108124, -3333.4050575977635, 14940.062456138428, 7367.783173058412, -187500.02235174447, -187500.02235174447, -0.19, -0.772, -0.626, 192.0, 0.0, 0.0, 0.0, 0.0, 0.0, 0.0, 0.0, 0.0, 0.0, 1.6776155306885798E9, 0.0, 2023-02-28 12:18:50.688
233.0, 26242.780833575827, -4510.872603758884, 16103.13547887033, -3332.42158084173, 14970.4831803421, 7379.137859241708, -187500.02235174447, -187500.02235174447, -0.19, -0.772, -0.626, 192.0, 0.0, 0.0, 0.0, 0.0, 0.0, 0.0, 0.0, 0.0, 0.0, 1.6776155306926425E9, 0.0, 2023-02-28 12:18:50.692
234.0, 26212.941254727994, -4509.3750368803785, 15942.62760193677, -3330.454627329663, 14881.791458343443, 7305.980599639488, -187500.02235174447, -187500.02235174447, -0.19, -0.772, -0.626, 192.0, 0.0, 0.0, 0.0, 0.0, 0.0, 0.0, 0.0, 0.0, 0.0, 1.6776155306966405E9, 0.0, 2023-02-28 12:18:50.696
235.0, 26210.14728667108, -4511.945487492739, 15864.485903321018, -3331.549862807973, 14834.584574053833, 7292.234276799474, -187500.02235174447, -187500.02235174447, -0.19, -0.772, -0.626, 192.0, 0.0, 0.0, 0.0, 0.0, 0.0, 0.0, 0.0, 0.0, 0.0, 1.6776155306996205E9, 0.0, 2023-02-28 12:18:50.699
236.0, 26253.844947081205, -4515.208842183214, 16014.60021908286, -3334.522644820529, 14914.894391881751, 7359.334213654306, -187500.02235174447, -187500.02235174447, -0.19, -0.772, -0.626, 192.0, 0.0, 0.0, 0.0, 0.0, 0.0, 0.0, 0.0, 0.0, 0.0, 1.6776155307056468E9, 0.0, 2023-02-28 12:18:50.705
237.0, 26257.063598282766, -4517.287554417558, 16115.875973209855, -3334.0756099314226, 14970.550235575467, 7386.558638400869, -187500.02235174447, -187500.02235174447, -0.19, -0.772, -0.626, 192.0, 0.0, 0.0, 0.0, 0.0, 0.0, 0.0, 0.0, 0.0, 0.0, 1.6776155307086108E9, 0.0, 2023-02-28 12:18:50.708
238.0, 26227.112260712656, -4515.6558770723195, 15976.088163386365, -3331.393400596786, 14900.455164963623, 7315.033056143887, -187500.02235174447, -187500.02235174447, -0.19, -0.772, -0.626, 192.0, 0.0, 0.0, 0.0, 0.0, 0.0, 0.0, 0.0, 0.0, 0.0, 1.677615530712701E9, 0.0, 2023-02-28 12:18:50.712
239.0, 26222.0384147213, -4509.151519435825, 15856.461627061562, -3330.342868607386, 14841.871242746263, 7278.644416170647, -187500.02235174447, -187500.02235174447, -0.19, -0.772, -0.626, 192.0, 0.0, 0.0, 0.0, 0.0, 0.0, 0.0, 0.0, 0.0, 0.0, 1.67761553071665E9, 0.0, 2023-02-28 12:18:50.716
240.0, 26242.2443917089, -4508.391560124345, 15978.68096574318, -3331.974545952624, 14907.630074933777, 7350.348812383272, -187500.02235174447, -187500.02235174447, -0.194, -0.772, -0.618, 192.0, 249.0, 240.0, 231.0, 224.0, 236.0, 176.0, 0.0, 0.0, 0.0, 1.6776155307206616E9, 0.0, 2023-02-28 12:18:50.720
241.0, 26264.842005353214, -4506.983400223661, 16115.943028443222, -3331.683973274705, 14981.30142465847, 7392.303036725883, -187500.02235174447, -187500.02235174447, -0.194, -0.772, -0.618, 192.0, 0.0, 0.0, 0.0, 0.0, 0.0, 0.0, 0.0, 0.0, 0.0, 1.6776155307246766E9, 0.0, 2023-02-28 12:18:50.724
242.0, 26239.495127140897, -4505.9105164898065, 16008.051157957454, -3329.6276127848164, 14927.031389120984, 7328.421751072616, -187500.02235174447, -187500.02235174447, -0.194, -0.772, -0.618, 192.0, 0.0, 0.0, 0.0, 0.0, 0.0, 0.0, 0.0, 0.0, 0.0, 1.677615530727667E9, 0.0, 2023-02-28 12:18:50.727
243.0, 26224.27358916683, -4504.927039733772, 15859.635574774216, -3329.1805778957105, 14851.862472517787, 7275.112840546709, -187500.02235174447, -187500.02235174447, -0.194, -0.772, -0.618, 192.0, 0.0, 0.0, 0.0, 0.0, 0.0, 0.0, 0.0, 0.0, 0.0, 1.677615530731624E9, 0.0, 2023-02-28 12:18:50.731
244.0, 26233.437804393507, -4510.649086314331, 15948.617869450793, -3333.4497610866742, 14892.341481726347, 7331.550995296359, -187500.02235174447, -187500.02235174447, -0.194, -0.772, -0.618, 192.0, 0.0, 0.0, 0.0, 0.0, 0.0, 0.0, 0.0, 0.0, 0.0, 1.6776155307356243E9, 0.0, 2023-02-28 12:18:50.735
245.0, 26254.53785115932, -4511.632563070365, 16111.785603974535, -3334.4779413316182, 14977.456924612157, 7389.196144246596, -187500.02235174447, -187500.02235174447, -0.194, -0.772, -0.618, 192.0, 0.0, 0.0, 0.0, 0.0, 0.0, 0.0, 0.0, 0.0, 0.0, 1.6776155307406776E9, 0.0, 2023-02-28 12:18:50.740
246.0, 26243.42903416503, -4508.615077568898, 16043.143396752286, -3331.7957319969814, 14943.392866062268, 7339.843492489278, -187500.02235174447, -187500.02235174447, -0.194, -0.772, -0.618, 192.0, 0.0, 0.0, 0.0, 0.0, 0.0, 0.0, 0.0, 0.0, 0.0, 1.6776155307446759E9, 0.0, 2023-02-28 12:18:50.744
247.0, 26217.52336234133, -4506.022275212083, 15873.67247029215, -3330.4769790741184, 14856.690449320133, 7276.900980103133, -187500.02235174447, -187500.02235174447, -0.194, -0.772, -0.618, 192.0, 0.0, 0.0, 0.0, 0.0, 0.0, 0.0, 0.0, 0.0, 0.0, 1.6776155307486467E9, 0.0, 2023-02-28 12:18:50.748
248.0, 26245.66420861056, -4502.758920521608, 15920.007636548, -3332.1086564193556, 14878.997490286529, 7318.475224790004, -187500.02235174447, -187500.02235174447, -0.194, -0.772, -0.618, 192.0, 0.0, 0.0, 0.0, 0.0, 0.0, 0.0, 0.0, 0.0, 0.0, 1.677615530752653E9, 0.0, 2023-02-28 12:18:50.752
249.0, 26264.596136164208, -4505.239964156147, 16096.18408634473, -3334.2097203981543, 14972.96422397664, 7384.234056977518, -187500.02235174447, -187500.02235174447, -0.194, -0.772, -0.618, 192.0, 0.0, 0.0, 0.0, 0.0, 0.0, 0.0, 0.0, 0.0, 0.0, 1.6776155307556584E9, 0.0, 2023-02-28 12:18:50.755
250.0, 26246.71474059996, -4508.324504890979, 16070.546635454493, -3332.8909674752913, 14962.101276171361, 7352.36046938425, -187500.02235174447, -187500.02235174447, -0.19, -0.772, -0.622, 192.0, 250.0, 16.0, 231.0, 224.0, 236.0, 144.0, 0.0, 0.0, 0.0, 1.6776155307597625E9, 0.0, 2023-02-28 12:18:50.759
251.0, 26219.66912980904, -4511.565507836999, 15893.207894946087, -3331.974545952624, 14868.022783758974, 7279.784355137868, -187500.02235174447, -187500.02235174447, -0.19, -0.772, -0.622, 192.0, 0.0, 0.0, 0.0, 0.0, 0.0, 0.0, 0.0, 0.0, 0.0, 1.67761553076371E9, 0.0, 2023-02-28 12:18:50.763
252.0, 26233.594266604694, -4513.644220071343, 15895.510124624983, -3334.23207214261, 14866.860493047297, 7301.711416448524, -187500.02235174447, -187500.02235174447, -0.19, -0.772, -0.622, 192.0, 0.0, 0.0, 0.0, 0.0, 0.0, 0.0, 0.0, 0.0, 0.0, 1.6776155307687187E9, 0.0, 2023-02-28 12:18:50.768
253.0, 26269.737037388928, -4511.565507836999, 16072.871216877846, -3336.713115777149, 14961.900110471262, 7378.489658652504, -187500.02235174447, -187500.02235174447, -0.19, -0.772, -0.622, 192.0, 0.0, 0.0, 0.0, 0.0, 0.0, 0.0, 0.0, 0.0, 0.0, 1.6776155307727015E9, 0.0, 2023-02-28 12:18:50.772
254.0, 26254.247278481398, -4512.928964248773, 16095.357071799885, -3335.4167145987412, 14977.479276356611, 7366.084440479808, -187500.02235174447, -187500.02235174447, -0.19, -0.772, -0.622, 192.0, 0.0, 0.0, 0.0, 0.0, 0.0, 0.0, 0.0, 0.0, 0.0, 1.6776155307767313E9, 0.0, 2023-02-28 12:18:50.776
255.0, 26232.1414032151, -4511.520804348088, 15919.761767358992, -3332.1086564193556, 14886.284158978959, 7286.936913363566, -187500.02235174447, -187500.02235174447, -0.19, -0.772, -0.622, 192.0, 0.0, 0.0, 0.0, 0.0, 0.0, 0.0, 0.0, 0.0, 0.0, 1.677615530780698E9, 0.0, 2023-02-28 12:18:50.780
0.0, 26228.67688282453, -4515.097083460937, 15876.064106948867, -3333.673278531227, 14860.110266221795, 7287.629817441681, -187500.02235174447, -187500.02235174447, -0.19, -0.772, -0.622, 192.0, 0.0, 0.0, 0.0, 0.0, 0.0, 0.0, 0.0, 0.0, 0.0, 1.677615530783692E9, 0.0, 2023-02-28 12:18:50.783
1.0, 26242.87024055365, -4518.986286996161, 16045.467978175639, -3336.9813367106126, 14944.353991073847, 7365.793867801889, -187500.02235174447, -187500.02235174447, -0.19, -0.772, -0.622, 192.0, 0.0, 0.0, 0.0, 0.0, 0.0, 0.0, 0.0, 0.0, 0.0, 1.6776155307897005E9, 0.0, 2023-02-28 12:18:50.789
2.0, 26245.887726055116, -4519.343914907446, 16113.573743530958, -3336.9142814772467, 14978.283939157003, 7373.348757427783, -187500.02235174447, -187500.02235174447, -0.19, -0.772, -0.622, 192.0, 0.0, 0.0, 0.0, 0.0, 0.0, 0.0, 0.0, 0.0, 0.0, 1.6776155307927427E9, 0.0, 2023-02-28 12:18:50.792
3.0, 26220.04910946478, -4520.662667830309, 15951.992982863545, -3335.260252387554, 14887.401746201724, 7298.805689669334, -187500.02235174447, -187500.02235174447, -0.19, -0.772, -0.622, 192.0, 0.0, 0.0, 0.0, 0.0, 0.0, 0.0, 0.0, 0.0, 0.0, 1.6776155307957456E9, 0.0, 2023-02-28 12:18:50.795
4.0, 26214.95291172897, -4519.366266651901, 15863.61418528726, -3334.679107031716, 14839.233736900538, 7280.834887127267, -187500.02235174447, -187500.02235174447, -0.192, -0.776, -0.622, 192.0, 250.0, 0.0, 231.0, 192.0, 236.0, 144.0, 0.0, 0.0, 0.0, 1.6776155308007348E9, 0.0, 2023-02-28 12:18:50.800
5.0, 26247.653513867084, -4521.959069008716, 16012.432099870695, -3337.2495576440765, 14920.281162295481, 7349.544149582881, -187500.02235174447, -187500.02235174447, -0.192, -0.776, -0.622, 192.0, 0.0, 0.0, 0.0, 0.0, 0.0, 0.0, 0.0, 0.0, 0.0, 1.6776155308047209E9, 0.0, 2023-02-28 12:18:50.804
6.0, 26259.00820005038, -4523.680153331775, 16123.117938413376, -3337.294261132987, 14980.876741513819, 7376.522705140437, -187500.02235174447, -187500.02235174447, -0.192, -0.776, -0.622, 192.0, 0.0, 0.0, 0.0, 0.0, 0.0, 0.0, 0.0, 0.0, 0.0, 1.6776155308087256E9, 0.0, 2023-02-28 12:18:50.808
7.0, 26225.055900222767, -4522.741380064653, 15986.705242002636, -3334.388534353797, 14910.491098224056, 7312.440253787072, -187500.02235174447, -187500.02235174447, -0.192, -0.776, -0.622, 192.0, 0.0, 0.0, 0.0, 0.0, 0.0, 0.0, 0.0, 0.0, 0.0, 1.6776155308117194E9, 0.0, 2023-02-28 12:18:50.811
8.0, 26216.71869954094, -4518.9415835072505, 15860.551996296883, -3333.4050575977635, 14844.59815556981, 7279.426727226583, -187500.02235174447, -187500.02235174447, -0.192, -0.776, -0.622, 192.0, 0.0, 0.0, 0.0, 0.0, 0.0, 0.0, 0.0, 0.0, 0.0, 1.6776155308157177E9, 0.0, 2023-02-28 12:18:50.815
9.0, 26245.395987677097, -4518.405141640323, 15979.865608199312, -3335.0367349430007, 14909.373511001291, 7340.961079712043, -187500.02235174447, -187500.02235174447, -0.192, -0.776, -0.622, 192.0, 0.0, 0.0, 0.0, 0.0, 0.0, 0.0, 0.0, 0.0, 0.0, 1.677615530819739E9, 0.0, 2023-02-28 12:18:50.819
10.0, 26261.35513321819, -4520.483853874666, 16124.503746569604, -3336.199025654677, 14987.805782294963, 7389.553772157881, -187500.02235174447, -187500.02235174447, -0.192, -0.776, -0.622, 192.0, 0.0, 0.0, 0.0, 0.0, 0.0, 0.0, 0.0, 0.0, 0.0, 1.677615530823724E9, 0.0, 2023-02-28 12:18:50.823
11.0, 26238.10931898467, -4520.327391663479, 16022.35627440885, -3334.589700053895, 14935.390941547268, 7329.226413873007, -187500.02235174447, -187500.02235174447, -0.192, -0.776, -0.622, 192.0, 0.0, 0.0, 0.0, 0.0, 0.0, 0.0, 0.0, 0.0, 0.0, 1.6776155308287845E9, 0.0, 2023-02-28 12:18:50.828
12.0, 26215.221132662435, -4520.215632941203, 15867.726906267037, -3334.097961675878, 14852.801245784909, 7272.452982956527, -187500.02235174447, -187500.02235174447, -0.192, -0.776, -0.622, 192.0, 0.0, 0.0, 0.0, 0.0, 0.0, 0.0, 0.0, 0.0, 0.0, 1.6776155308327284E9, 0.0, 2023-02-28 12:18:50.832
13.0, 26232.499031126386, -4517.198147439736, 15949.690753184648, -3335.1484936652773, 14896.789478872954, 7320.263364346429, -187500.02235174447, -187500.02235174447, -0.192, -0.776, -0.622, 192.0, 0.0, 0.0, 0.0, 0.0, 0.0, 0.0, 0.0, 0.0, 0.0, 1.677615530835741E9, 0.0, 2023-02-28 12:18:50.835
14.0, 26259.2987727283, -4516.684057317264, 16117.641761021825, -3335.0143831985456, 14987.425802639224, 7386.93861805661, -187500.02235174447, -187500.02235174447, -0.184, -0.772, -0.624, 192.0, 250.0, 64.0, 231.0, 224.0, 236.0, 128.0, 0.0, 0.0, 0.0, 1.6776155308398063E9, 0.0, 2023-02-28 12:18:50.839
15.0, 26241.75265333088, -4514.0689032159935, 16055.123931780332, -3332.0863046749005, 14955.842787723876, 7348.381858871206, -187500.02235174447, -187500.02235174447, -0.184, -0.772, -0.624, 192.0, 0.0, 0.0, 0.0, 0.0, 0.0, 0.0, 0.0, 0.0, 0.0, 1.6776155308438168E9, 0.0, 2023-02-28 12:18:50.843
16.0, 26217.27749315232, -4509.889127002851, 15880.087420950822, -3331.1251796633223, 14865.295870935426, 7277.526828947882, -187500.02235174447, -187500.02235174447, -0.184, -0.772, -0.624, 192.0, 0.0, 0.0, 0.0, 0.0, 0.0, 0.0, 0.0, 0.0, 0.0, 1.6776155308477778E9, 0.0, 2023-02-28 12:18:50.847
17.0, 26224.206533933466, -4512.347818892935, 15920.253505737008, -3334.1426651647885, 14885.658310134211, 7306.651151973147, -187500.02235174447, -187500.02235174447, -0.184, -0.772, -0.624, 192.0, 0.0, 0.0, 0.0, 0.0, 0.0, 0.0, 0.0, 0.0, 0.0, 1.6776155308517504E9, 0.0, 2023-02-28 12:18:50.851
18.0, 26251.118034257655, -4514.582993338465, 16099.04510963501, -3336.579005310417, 14979.222712424125, 7382.445917421093, -187500.02235174447, -187500.02235174447, -0.184, -0.772, -0.624, 192.0, 0.0, 0.0, 0.0, 0.0, 0.0, 0.0, 0.0, 0.0, 0.0, 1.6776155308567429E9, 0.0, 2023-02-28 12:18:50.856
19.0, 26239.361016674164, -4515.946449750239, 16082.37070827135, -3336.0202116990345, 14973.701831543665, 7352.829856017811, -187500.02235174447, -187500.02235174447, -0.184, -0.772, -0.624, 192.0, 0.0, 0.0, 0.0, 0.0, 0.0, 0.0, 0.0, 0.0, 0.0, 1.677615530860822E9, 0.0, 2023-02-28 12:18:50.860
20.0, 26214.41646986204, -4519.858005029918, 15900.360453171785, -3335.863749487847, 14876.51644665199, 7274.889323102156, -187500.02235174447, -187500.02235174447, -0.184, -0.772, -0.624, 192.0, 0.0, 0.0, 0.0, 0.0, 0.0, 0.0, 0.0, 0.0, 0.0, 1.677615530863809E9, 0.0, 2023-02-28 12:18:50.863
21.0, 26231.068519481247, -4527.010563255616, 15892.850267034803, -3339.104752433867, 14871.107324493805, 7286.176954052085, -187500.02235174447, -187500.02235174447, -0.184, -0.772, -0.624, 192.0, 0.0, 0.0, 0.0, 0.0, 0.0, 0.0, 0.0, 0.0, 0.0, 1.67761553086778E9, 0.0, 2023-02-28 12:18:50.867
22.0, 26255.00723779288, -4534.856025559428, 16073.184141300218, -3342.8821972468136, 14965.699907028666, 7355.802638030367, -187500.02235174447, -187500.02235174447, -0.184, -0.772, -0.624, 192.0, 0.0, 0.0, 0.0, 0.0, 0.0, 0.0, 0.0, 0.0, 0.0, 1.6776155308737743E9, 0.0, 2023-02-28 12:18:50.873
23.0, 26237.930505029024, -4536.107723248926, 16105.437708549227, -3341.6975547906823, 14985.056517726962, 7348.001879215465, -187500.02235174447, -187500.02235174447, -0.184, -0.772, -0.624, 192.0, 0.0, 0.0, 0.0, 0.0, 0.0, 0.0, 0.0, 0.0, 0.0, 1.6776155308768568E9, 0.0, 2023-02-28 12:18:50.876
24.0, 26211.19781866048, -4532.509092391621, 15927.942505829635, -3338.6577175447605, 14896.498906195035, 7271.424802711583, -187500.02235174447, -187500.02235174447, -0.18, -0.766, -0.626, 192.0, 250.0, 96.0, 232.0, 16.0, 236.0, 112.0, 0.0, 0.0, 0.0, 1.6776155308817632E9, 0.0, 2023-02-28 12:18:50.881
25.0, 26210.61667330464, -4527.345839422445, 15874.18656041462, -3338.188330911199, 14865.89936803572, 7269.860180599711, -187500.02235174447, -187500.02235174447, -0.18, -0.766, -0.626, 192.0, 0.0, 0.0, 0.0, 0.0, 0.0, 0.0, 0.0, 0.0, 0.0, 1.6776155308848677E9, 0.0, 2023-02-28 12:18:50.884
26.0, 26244.546621387795, -4522.674324831286, 16043.478672919116, -3338.814179755948, 14955.82043597942, 7348.873597249222, -187500.02235174447, -187500.02235174447, -0.18, -0.766, -0.626, 192.0, 0.0, 0.0, 0.0, 0.0, 0.0, 0.0, 0.0, 0.0, 0.0, 1.677615530888884E9, 0.0, 2023-02-28 12:18:50.888
27.0, 26260.371656462154, -4519.947412007739, 16120.748653501112, -3337.9424617221907, 14997.260570199558, 7369.12427772573, -187500.02235174447, -187500.02235174447, -0.18, -0.766, -0.626, 192.0, 0.0, 0.0, 0.0, 0.0, 0.0, 0.0, 0.0, 0.0, 0.0, 1.6776155308918304E9, 0.0, 2023-02-28 12:18:50.891
28.0, 26219.80324027577, -4519.2321561851695, 15962.16302659071, -3336.489598332596, 14911.921609869196, 7290.669654687603, -187500.02235174447, -187500.02235174447, -0.18, -0.766, -0.626, 192.0, 0.0, 0.0, 0.0, 0.0, 0.0, 0.0, 0.0, 0.0, 0.0, 1.6776155308959088E9, 0.0, 2023-02-28 12:18:50.895
29.0, 26212.650682050073, -4520.439150385756, 15865.0446969324, -3336.869577988336, 14859.41736214368, 7265.948625320033, -187500.02235174447, -187500.02235174447, -0.18, -0.766, -0.626, 192.0, 0.0, 0.0, 0.0, 0.0, 0.0, 0.0, 0.0, 0.0, 0.0, 1.677615530899792E9, 0.0, 2023-02-28 12:18:50.899
30.0, 26252.883822069627, -4521.4673306306995, 16009.973407980611, -3339.037697200501, 14936.083845625382, 7337.116579665731, -187500.02235174447, -187500.02235174447, -0.18, -0.766, -0.626, 192.0, 0.0, 0.0, 0.0, 0.0, 0.0, 0.0, 0.0, 0.0, 0.0, 1.677615530903805E9, 0.0, 2023-02-28 12:18:50.903
31.0, 26266.965421076467, -4524.194243454247, 16129.197612905218, -3340.1776361677216, 14999.831020811918, 7367.045565491387, -187500.02235174447, -187500.02235174447, -0.18, -0.766, -0.626, 192.0, 0.0, 0.0, 0.0, 0.0, 0.0, 0.0, 0.0, 0.0, 0.0, 1.6776155309078372E9, 0.0, 2023-02-28 12:18:50.907
32.0, 26260.192842506513, -4522.473159131188, 15996.987044452078, -3337.830702999914, 14930.451206022646, 7294.424747756094, -187500.02235174447, -187500.02235174447, -0.18, -0.766, -0.626, 192.0, 0.0, 0.0, 0.0, 0.0, 0.0, 0.0, 0.0, 0.0, 0.0, 1.6776155309128149E9, 0.0, 2023-02-28 12:18:50.912
33.0, 26247.58645863372, -4518.315734662501, 15864.485903321018, -3336.4672465881404, 14856.17635919766, 7252.112895502198, -187500.02235174447, -187500.02235174447, -0.18, -0.766, -0.626, 192.0, 0.0, 0.0, 0.0, 0.0, 0.0, 0.0, 0.0, 0.0, 0.0, 1.6776155309168067E9, 0.0, 2023-02-28 12:18:50.916
34.0, 26254.224926736944, -4516.259374172613, 15976.40108780874, -3336.4448948436852, 14921.242287307059, 7323.7949399703675, -187500.02235174447, -187500.02235174447, -0.186, -0.766, -0.626, 192.0, 250.0, 48.0, 232.0, 16.0, 236.0, 112.0, 0.0, 0.0, 0.0, 1.6776155309198217E9, 0.0, 2023-02-28 12:18:50.919
35.0, 26299.174284836565, -4514.091254960448, 16127.297714626518, -3336.199025654677, 15002.44617491319, 7376.925036540632, -187500.02235174447, -187500.02235174447, -0.186, -0.766, -0.626, 192.0, 0.0, 0.0, 0.0, 0.0, 0.0, 0.0, 0.0, 0.0, 0.0, 1.6776155309238837E9, 0.0, 2023-02-28 12:18:50.923
36.0, 26270.049961811303, -4515.745284050141, 16030.179384968209, -3335.4167145987412, 14949.316078342925, 7316.374160811206, -187500.02235174447, -187500.02235174447, -0.186, -0.766, -0.626, 192.0, 0.0, 0.0, 0.0, 0.0, 0.0, 0.0, 0.0, 0.0, 0.0, 1.6776155309278889E9, 0.0, 2023-02-28 12:18:50.927
37.0, 26248.86050806767, -4517.555775351021, 15869.157417912176, -3335.0814384319115, 14863.194806956626, 7255.108029259209, -187500.02235174447, -187500.02235174447, -0.186, -0.766, -0.626, 192.0, 0.0, 0.0, 0.0, 0.0, 0.0, 0.0, 0.0, 0.0, 0.0, 1.6776155309318647E9, 0.0, 2023-02-28 12:18:50.931
38.0, 26264.48437744193, -4515.857042772418, 15943.275802525975, -3335.237900643099, 14902.779746386976, 7310.272134574907, -187500.02235174447, -187500.02235174447, -0.186, -0.766, -0.626, 192.0, 0.0, 0.0, 0.0, 0.0, 0.0, 0.0, 0.0, 0.0, 0.0, 1.6776155309358556E9, 0.0, 2023-02-28 12:18:50.935
39.0, 26296.782648179847, -4516.281725917069, 16115.47364180966, -3336.154322165766, 14997.417032410745, 7372.298225438384, -187500.02235174447, -187500.02235174447, -0.186, -0.766, -0.626, 192.0, 0.0, 0.0, 0.0, 0.0, 0.0, 0.0, 0.0, 0.0, 0.0, 1.6776155309409297E9, 0.0, 2023-02-28 12:18:50.940
40.0, 26259.276420983842, -4518.874528273885, 16060.555405682971, -3334.030906442512, 14968.382116363302, 7338.5917947997805, -187500.02235174447, -187500.02235174447, -0.186, -0.766, -0.626, 192.0, 0.0, 0.0, 0.0, 0.0, 0.0, 0.0, 0.0, 0.0, 0.0, 1.67761553094488E9, 0.0, 2023-02-28 12:18:50.944
41.0, 26247.072368511246, -4516.371132894889, 15880.847380262303, -3332.5109878195512, 14874.102458250816, 7269.211980010507, -187500.02235174447, -187500.02235174447, -0.186, -0.766, -0.626, 192.0, 0.0, 0.0, 0.0, 0.0, 0.0, 0.0, 0.0, 0.0, 0.0, 1.6776155309478345E9, 0.0, 2023-02-28 12:18:50.947
42.0, 26247.76527258936, -4515.298249161035, 15914.53145915645, -3334.7461622650817, 14892.140316026249, 7294.514154733915, -187500.02235174447, -187500.02235174447, -0.186, -0.766, -0.626, 192.0, 0.0, 0.0, 0.0, 0.0, 0.0, 0.0, 0.0, 0.0, 0.0, 1.6776155309518557E9, 0.0, 2023-02-28 12:18:50.951
43.0, 26282.768104406372, -4511.65491481482, 16098.24044683462, -3335.3496593653754, 14991.449116641179, 7362.731678811512, -187500.02235174447, -187500.02235174447, -0.186, -0.766, -0.626, 192.0, 0.0, 0.0, 0.0, 0.0, 0.0, 0.0, 0.0, 0.0, 0.0, 1.677615530955865E9, 0.0, 2023-02-28 12:18:50.955
44.0, 26284.444485240518, -4512.727798548674, 16088.875065907845, -3333.6956302756826, 14990.599750351877, 7337.8318354883, -187500.02235174447, -187500.02235174447, -0.19, -0.772, -0.626, 192.0, 250.0, 16.0, 231.0, 224.0, 236.0, 112.0, 0.0, 0.0, 0.0, 1.6776155309599097E9, 0.0, 2023-02-28 12:18:50.959
45.0, 26236.321179428243, -4515.387656138856, 15904.339063684829, -3334.299127375976, 14895.582484672366, 7256.225616481975, -187500.02235174447, -187500.02235174447, -0.19, -0.772, -0.626, 192.0, 0.0, 0.0, 0.0, 0.0, 0.0, 0.0, 0.0, 0.0, 0.0, 1.6776155309639645E9, 0.0, 2023-02-28 12:18:50.963
46.0, 26262.09274078521, -4519.433321885267, 15889.47515362205, -3337.540130321995, 14885.904179323219, 7272.698852145536, -187500.02235174447, -187500.02235174447, -0.19, -0.772, -0.626, 192.0, 0.0, 0.0, 0.0, 0.0, 0.0, 0.0, 0.0, 0.0, 0.0, 1.677615530968941E9, 0.0, 2023-02-28 12:18:50.968
47.0, 26329.55030555133, -4518.226327684681, 16070.636042432314, -3338.8588832448586, 14980.541465346989, 7349.812370516345, -187500.02235174447, -187500.02235174447, -0.19, -0.772, -0.626, 192.0, 0.0, 0.0, 0.0, 0.0, 0.0, 0.0, 0.0, 0.0, 0.0, 1.67761553097292E9, 0.0, 2023-02-28 12:18:50.972
48.0, 26340.860288245713, -4517.265202673102, 16111.38327257434, -3338.7247727781264, 15004.480183658623, 7329.807559228845, -187500.02235174447, -187500.02235174447, -0.19, -0.772, -0.626, 192.0, 0.0, 0.0, 0.0, 0.0, 0.0, 0.0, 0.0, 0.0, 0.0, 1.6776155309759696E9, 0.0, 2023-02-28 12:18:50.975
49.0, 26285.24914804091, -4519.2321561851695, 15935.29622975543, -3337.808351255459, 14912.815679647409, 7241.540520374838, -187500.02235174447, -187500.02235174447, -0.19, -0.772, -0.626, 192.0, 0.0, 0.0, 0.0, 0.0, 0.0, 0.0, 0.0, 0.0, 0.0, 1.677615530979893E9, 0.0, 2023-02-28 12:18:50.979
50.0, 26238.735167829414, -4521.869662030896, 15870.453819090584, -3337.7189442776375, 14878.841028075341, 7240.266470940885, -187500.02235174447, -187500.02235174447, -0.19, -0.772, -0.626, 192.0, 0.0, 0.0, 0.0, 0.0, 0.0, 0.0, 0.0, 0.0, 0.0, 1.6776155309839213E9, 0.0, 2023-02-28 12:18:50.983
51.0, 26255.364865704163, -4522.60726959792, 16035.119120492831, -3337.9871652111015, 14969.34324137488, 7316.955306167043, -187500.02235174447, -187500.02235174447, -0.19, -0.772, -0.626, 192.0, 0.0, 0.0, 0.0, 0.0, 0.0, 0.0, 0.0, 0.0, 0.0, 1.6776155309878929E9, 0.0, 2023-02-28 12:18:50.987
52.0, 26270.251127511397, -4518.159272451315, 16119.541659300527, -3335.9755082101237, 15019.142928021305, 7333.897928464166, -187500.02235174447, -187500.02235174447, -0.19, -0.772, -0.626, 192.0, 0.0, 0.0, 0.0, 0.0, 0.0, 0.0, 0.0, 0.0, 0.0, 1.6776155309919004E9, 0.0, 2023-02-28 12:18:50.991
53.0, 26287.417267253077, -4513.644220071343, 15961.805398679424, -3332.131008163811, 14934.251002580047, 7263.400526452127, -187500.02235174447, -187500.02235174447, -0.19, -0.772, -0.626, 192.0, 0.0, 0.0, 0.0, 0.0, 0.0, 0.0, 0.0, 0.0, 0.0, 1.677615530995952E9, 0.0, 2023-02-28 12:18:50.995
54.0, 26311.87007568718, -4513.5995165824315, 15856.886310206213, -3332.5109878195512, 14874.393030928735, 7234.3432586602285, -187500.02235174447, -187500.02235174447, -0.186, -0.776, -0.622, 192.0, 250.0, 48.0, 231.0, 192.0, 236.0, 144.0, 0.0, 0.0, 0.0, 1.677615531000953E9, 0.0, 2023-02-28 12:18:51.000
55.0, 26281.91873811707, -4511.386693881356, 15999.378681108796, -3334.7014587761714, 14949.360781831836, 7301.554954237337, -187500.02235174447, -187500.02235174447, -0.186, -0.776, -0.622, 192.0, 0.0, 0.0, 0.0, 0.0, 0.0, 0.0, 0.0, 0.0, 0.0, 1.6776155310039332E9, 0.0, 2023-02-28 12:18:51.003
56.0, 26272.978040334947, -4510.6043828254205, 16127.632990793347, -3334.813217498448, 15016.25955298657, 7344.246786146973, -187500.02235174447, -187500.02235174447, -0.186, -0.776, -0.622, 192.0, 0.0, 0.0, 0.0, 0.0, 0.0, 0.0, 0.0, 0.0, 0.0, 1.6776155310079565E9, 0.0, 2023-02-28 12:18:51.007
57.0, 26260.72928437344, -4511.006714225616, 16000.920951476211, -3333.1144849198445, 14945.404523063246, 7281.058404571821, -187500.02235174447, -187500.02235174447, -0.186, -0.776, -0.622, 192.0, 0.0, 0.0, 0.0, 0.0, 0.0, 0.0, 0.0, 0.0, 0.0, 1.6776155310119429E9, 0.0, 2023-02-28 12:18:51.011
58.0, 26262.249202996398, -4515.4770631166775, 15861.311955608364, -3334.321479120431, 14867.03930700294, 7229.738799302435, -187500.02235174447, -187500.02235174447, -0.186, -0.776, -0.622, 192.0, 0.0, 0.0, 0.0, 0.0, 0.0, 0.0, 0.0, 0.0, 0.0, 1.6776155310159967E9, 0.0, 2023-02-28 12:18:51.015
59.0, 26301.096534859724, -4515.633525327865, 15967.348631304341, -3336.154322165766, 14923.052778607938, 7284.120593562197, -187500.02235174447, -187500.02235174447, -0.186, -0.776, -0.622, 192.0, 0.0, 0.0, 0.0, 0.0, 0.0, 0.0, 0.0, 0.0, 0.0, 1.6776155310199316E9, 0.0, 2023-02-28 12:18:51.019
60.0, 26345.911782492614, -4512.347818892935, 16125.308409369996, -3336.511950077051, 15008.63760812731, 7338.748257010968, -187500.02235174447, -187500.02235174447, -0.186, -0.776, -0.622, 192.0, 0.0, 0.0, 0.0, 0.0, 0.0, 0.0, 0.0, 0.0, 0.0, 1.6776155310239286E9, 0.0, 2023-02-28 12:18:51.023
61.0, 26289.63008995415, -4512.906612504317, 16033.666257103236, -3333.7179820201377, 14964.112933172339, 7284.67938717358, -187500.02235174447, -187500.02235174447, -0.186, -0.776, -0.622, 192.0, 0.0, 0.0, 0.0, 0.0, 0.0, 0.0, 0.0, 0.0, 0.0, 1.6776155310289958E9, 0.0, 2023-02-28 12:18:51.028
62.0, 26239.562182374262, -4509.263278158102, 15864.821179487846, -3331.32634536342, 14877.343461196837, 7226.967182989977, -187500.02235174447, -187500.02235174447, -0.186, -0.776, -0.622, 192.0, 0.0, 0.0, 0.0, 0.0, 0.0, 0.0, 0.0, 0.0, 0.0, 1.6776155310319932E9, 0.0, 2023-02-28 12:18:51.031
63.0, 26302.0576598713, -4505.485833345155, 15932.658723909704, -3332.8015604974703, 14911.385168002269, 7273.659977157114, -187500.02235174447, -187500.02235174447, -0.186, -0.776, -0.622, 192.0, 0.0, 0.0, 0.0, 0.0, 0.0, 0.0, 0.0, 0.0, 0.0, 1.6776155310359268E9, 0.0, 2023-02-28 12:18:51.035
64.0, 26317.413308312098, -4500.032007698061, 16106.75646147209, -3331.6616215302497, 15005.262494714558, 7342.8162745018335, -187500.02235174447, -187500.02235174447, -0.184, -0.772, -0.624, 192.0, 250.0, 64.0, 231.0, 224.0, 236.0, 128.0, 0.0, 0.0, 0.0, 1.6776155310399492E9, 0.0, 2023-02-28 12:18:51.039
65.0, 26321.50367754742, -4499.026179197572, 16057.694382392692, -3330.0522959294676, 14980.496761858078, 7294.603561711737, -187500.02235174447, -187500.02235174447, -0.184, -0.772, -0.624, 192.0, 0.0, 0.0, 0.0, 0.0, 0.0, 0.0, 0.0, 0.0, 0.0, 1.6776155310440035E9, 0.0, 2023-02-28 12:18:51.044
66.0, 26276.82254038126, -4502.066016443493, 15874.343022625808, -3328.9570604511573, 14882.551417654922, 7216.037179951332, -187500.02235174447, -187500.02235174447, -0.184, -0.772, -0.624, 192.0, 0.0, 0.0, 0.0, 0.0, 0.0, 0.0, 0.0, 0.0, 0.0, 1.6776155310479708E9, 0.0, 2023-02-28 12:18:51.047
67.0, 26269.982906577934, -4501.775443765574, 15894.86192403578, -3329.6052610403613, 14893.548475926933, 7248.693078600536, -187500.02235174447, -187500.02235174447, -0.184, -0.772, -0.624, 192.0, 0.0, 0.0, 0.0, 0.0, 0.0, 0.0, 0.0, 0.0, 0.0, 1.6776155310520997E9, 0.0, 2023-02-28 12:18:51.052
68.0, 26293.899273145114, -4496.701597774219, 16078.414449502761, -3330.1640546517438, 14993.34901491988, 7322.5655940253255, -187500.02235174447, -187500.02235174447, -0.184, -0.772, -0.624, 192.0, 0.0, 0.0, 0.0, 0.0, 0.0, 0.0, 0.0, 0.0, 0.0, 1.677615531056006E9, 0.0, 2023-02-28 12:18:51.056
69.0, 26294.480418500953, -4496.925115218773, 16082.415411760261, -3329.717019762638, 14993.974863764628, 7307.58992524027, -187500.02235174447, -187500.02235174447, -0.184, -0.772, -0.624, 192.0, 0.0, 0.0, 0.0, 0.0, 0.0, 0.0, 0.0, 0.0, 0.0, 1.6776155310590355E9, 0.0, 2023-02-28 12:18:51.059
70.0, 26273.2015577795, -4500.434339098256, 15901.120412483266, -3329.649964529272, 14898.957598085119, 7224.821415522268, -187500.02235174447, -187500.02235174447, -0.184, -0.772, -0.624, 192.0, 0.0, 0.0, 0.0, 0.0, 0.0, 0.0, 0.0, 0.0, 0.0, 1.677615531063978E9, 0.0, 2023-02-28 12:18:51.063
71.0, 26291.932319633048, -4501.104891431915, 15876.42173486015, -3330.8122552409477, 14884.317205466892, 7235.237328438441, -187500.02235174447, -187500.02235174447, -0.184, -0.772, -0.624, 192.0, 0.0, 0.0, 0.0, 0.0, 0.0, 0.0, 0.0, 0.0, 0.0, 1.677615531068009E9, 0.0, 2023-02-28 12:18:51.068
72.0, 26318.128564134666, -4499.316751875491, 16056.755609125568, -3332.0192494415346, 14978.418049623735, 7313.78135845439, -187500.02235174447, -187500.02235174447, -0.184, -0.772, -0.624, 192.0, 0.0, 0.0, 0.0, 0.0, 0.0, 0.0, 0.0, 0.0, 0.0, 1.6776155310719762E9, 0.0, 2023-02-28 12:18:51.071
73.0, 26309.791363452838, -4493.393539594834, 16103.873086437356, -3329.091170917889, 15007.765890093553, 7317.916431178622, -187500.02235174447, -187500.02235174447, -0.184, -0.772, -0.624, 192.0, 0.0, 0.0, 0.0, 0.0, 0.0, 0.0, 0.0, 0.0, 0.0, 1.6776155310760157E9, 0.0, 2023-02-28 12:18:51.076
74.0, 26310.037232641847, -4488.520859303577, 15928.300133740919, -3327.034810428001, 14917.062511093916, 7234.946755760522, -187500.02235174447, -187500.02235174447, -0.182, -0.766, -0.616, 192.0, 250.0, 80.0, 232.0, 16.0, 236.0, 192.0, 0.0, 0.0, 0.0, 1.6776155310800097E9, 0.0, 2023-02-28 12:18:51.080
75.0, 26337.753395766427, -4484.5422487905325, 15856.394571828196, -3326.476016816618, 14878.975138542073, 7224.106159699698, -187500.02235174447, -187500.02235174447, -0.182, -0.766, -0.616, 192.0, 0.0, 0.0, 0.0, 0.0, 0.0, 0.0, 0.0, 0.0, 0.0, 1.6776155310839927E9, 0.0, 2023-02-28 12:18:51.083
76.0, 26330.466727073996, -4483.178792378759, 16019.539954607482, -3327.2136243836435, 14967.644508796277, 7299.431538514083, -187500.02235174447, -187500.02235174447, -0.182, -0.766, -0.616, 192.0, 0.0, 0.0, 0.0, 0.0, 0.0, 0.0, 0.0, 0.0, 0.0, 1.6776155310870483E9, 0.0, 2023-02-28 12:18:51.087
77.0, 26327.44924157253, -4481.703577244709, 16113.461984808682, -3325.291374360487, 15019.5452594215, 7320.129253879697, -187500.02235174447, -187500.02235174447, -0.182, -0.766, -0.616, 192.0, 0.0, 0.0, 0.0, 0.0, 0.0, 0.0, 0.0, 0.0, 0.0, 1.6776155310910237E9, 0.0, 2023-02-28 12:18:51.091
78.0, 26301.990604637936, -4481.234190611147, 15958.944375389145, -3323.0785516594115, 14933.692208968665, 7249.38598267865, -187500.02235174447, -187500.02235174447, -0.182, -0.766, -0.616, 192.0, 0.0, 0.0, 0.0, 0.0, 0.0, 0.0, 0.0, 0.0, 0.0, 1.6776155310960405E9, 0.0, 2023-02-28 12:18:51.096
79.0, 26301.051831370813, -4483.692882501231, 15847.163301368155, -3323.9502696931686, 14873.029574516962, 7223.122682943665, -187500.02235174447, -187500.02235174447, -0.182, -0.766, -0.616, 192.0, 0.0, 0.0, 0.0, 0.0, 0.0, 0.0, 0.0, 0.0, 0.0, 1.677615531100042E9, 0.0, 2023-02-28 12:18:51.100
80.0, 26303.44346802753, -4483.514068545588, 15983.911273945723, -3326.006630183057, 14949.316078342925, 7290.289675031862, -187500.02235174447, -187500.02235174447, -0.182, -0.766, -0.616, 192.0, 0.0, 0.0, 0.0, 0.0, 0.0, 0.0, 0.0, 0.0, 0.0, 1.677615531104056E9, 0.0, 2023-02-28 12:18:51.104
81.0, 26342.670779546595, -4481.4353563112445, 16117.373540088362, -3326.5430720499844, 15023.657980401276, 7323.012628914432, -187500.02235174447, -187500.02235174447, -0.182, -0.766, -0.616, 192.0, 0.0, 0.0, 0.0, 0.0, 0.0, 0.0, 0.0, 0.0, 0.0, 1.6776155311080272E9, 0.0, 2023-02-28 12:18:51.108
82.0, 26318.68735774605, -4478.350815576412, 15994.774221751002, -3323.6373452707944, 14958.6814592697, 7259.041936283343, -187500.02235174447, -187500.02235174447, -0.182, -0.766, -0.616, 192.0, 0.0, 0.0, 0.0, 0.0, 0.0, 0.0, 0.0, 0.0, 0.0, 1.6776155311120863E9, 0.0, 2023-02-28 12:18:51.112
83.0, 26297.743773191425, -4476.2721033420685, 15847.94561242409, -3322.4750545591182, 14877.544626896934, 7217.4900433409275, -187500.02235174447, -187500.02235174447, -0.182, -0.766, -0.616, 192.0, 0.0, 0.0, 0.0, 0.0, 0.0, 0.0, 0.0, 0.0, 0.0, 1.6776155311150444E9, 0.0, 2023-02-28 12:18:51.115
84.0, 26320.631959513663, -4478.529629532055, 15950.62952645177, -3326.6101272833503, 14929.132453099783, 7277.191552781052, -187500.02235174447, -187500.02235174447, -0.182, -0.77, -0.62, 192.0, 250.0, 80.0, 231.0, 240.0, 236.0, 160.0, 0.0, 0.0, 0.0, 1.677615531120092E9, 0.0, 2023-02-28 12:18:51.120
85.0, 26344.905953992125, -4476.205048108703, 16114.33370284244, -3327.8171214839367, 15013.152660507281, 7335.97664069851, -187500.02235174447, -187500.02235174447, -0.182, -0.77, -0.62, 192.0, 0.0, 0.0, 0.0, 0.0, 0.0, 0.0, 0.0, 0.0, 0.0, 1.6776155311240423E9, 0.0, 2023-02-28 12:18:51.124
86.0, 26336.278180632376, -4473.746356218619, 16033.040408258488, -3326.476016816618, 14969.946738475173, 7278.219733025996, -187500.02235174447, -187500.02235174447, -0.182, -0.77, -0.62, 192.0, 0.0, 0.0, 0.0, 0.0, 0.0, 0.0, 0.0, 0.0, 0.0, 1.677615531128086E9, 0.0, 2023-02-28 12:18:51.128
87.0, 26321.369567080685, -4472.3381963179345, 15863.144798653699, -3325.581947038406, 14879.176304242172, 7218.3170578857735, -187500.02235174447, -187500.02235174447, -0.182, -0.77, -0.62, 192.0, 0.0, 0.0, 0.0, 0.0, 0.0, 0.0, 0.0, 0.0, 0.0, 1.6776155311320992E9, 0.0, 2023-02-28 12:18:51.132
88.0, 26341.039102201357, -4468.985434649639, 15923.092177282833, -3326.453665072163, 14911.765147658009, 7264.182837508063, -187500.02235174447, -187500.02235174447, -0.182, -0.77, -0.62, 192.0, 0.0, 0.0, 0.0, 0.0, 0.0, 0.0, 0.0, 0.0, 0.0, 1.6776155311361349E9, 0.0, 2023-02-28 12:18:51.136
89.0, 26356.08182621978, -4465.520914259067, 16101.906132925289, -3327.0795139169118, 15008.659959871766, 7333.205024386052, -187500.02235174447, -187500.02235174447, -0.182, -0.77, -0.62, 192.0, 0.0, 0.0, 0.0, 0.0, 0.0, 0.0, 0.0, 0.0, 0.0, 1.677615531139092E9, 0.0, 2023-02-28 12:18:51.139
90.0, 26366.207166458033, -4463.509257258089, 16061.65064116128, -3324.75493249356, 14994.265436442547, 7297.509288490926, -187500.02235174447, -187500.02235174447, -0.182, -0.77, -0.62, 192.0, 0.0, 0.0, 0.0, 0.0, 0.0, 0.0, 0.0, 0.0, 0.0, 1.6776155311430836E9, 0.0, 2023-02-28 12:18:51.143
91.0, 26335.16059340961, -4467.666681726776, 15879.215702917065, -3325.157263893755, 14896.655368406222, 7230.632869080648, -187500.02235174447, -187500.02235174447, -0.182, -0.77, -0.62, 192.0, 0.0, 0.0, 0.0, 0.0, 0.0, 0.0, 0.0, 0.0, 0.0, 1.6776155311470852E9, 0.0, 2023-02-28 12:18:51.147
92.0, 26331.092575918745, -4470.997091650616, 15895.688938580626, -3327.6606592727494, 14902.444470220145, 7261.746497362435, -187500.02235174447, -187500.02235174447, -0.182, -0.77, -0.62, 192.0, 0.0, 0.0, 0.0, 0.0, 0.0, 0.0, 0.0, 0.0, 0.0, 1.6776155311520753E9, 0.0, 2023-02-28 12:18:51.152
93.0, 26336.859325988215, -4470.438298039234, 16080.381403014828, -3328.9570604511573, 15000.68038710122, 7338.815312244334, -187500.02235174447, -187500.02235174447, -0.182, -0.77, -0.62, 192.0, 0.0, 0.0, 0.0, 0.0, 0.0, 0.0, 0.0, 0.0, 0.0, 1.6776155311561105E9, 0.0, 2023-02-28 12:18:51.156
94.0, 26335.004131198424, -4471.0417951395275, 16090.998481631099, -3328.8900052177914, 15004.279017958524, 7319.950439924055, -187500.02235174447, -187500.02235174447, -0.184, -0.77, -0.622, 192.0, 250.0, 64.0, 231.0, 240.0, 236.0, 144.0, 0.0, 0.0, 0.0, 1.6776155311601148E9, 0.0, 2023-02-28 12:18:51.160
95.0, 26316.563942022796, -4472.718175973675, 15910.329331198853, -3328.688839517694, 14901.95273184213, 7241.249947696919, -187500.02235174447, -187500.02235174447, -0.184, -0.77, -0.622, 192.0, 0.0, 0.0, 0.0, 0.0, 0.0, 0.0, 0.0, 0.0, 0.0, 1.6776155311640897E9, 0.0, 2023-02-28 12:18:51.164
96.0, 26315.58046526676, -4476.227399853158, 15880.646214562204, -3330.5440343074843, 14881.322071709881, 7249.475389656472, -187500.02235174447, -187500.02235174447, -0.184, -0.77, -0.622, 192.0, 0.0, 0.0, 0.0, 0.0, 0.0, 0.0, 0.0, 0.0, 0.0, 1.6776155311680844E9, 0.0, 2023-02-28 12:18:51.168
97.0, 26366.430683902585, -4472.852286440407, 16058.141417281799, -3331.929842463713, 14976.093468200383, 7327.751198738957, -187500.02235174447, -187500.02235174447, -0.184, -0.77, -0.622, 192.0, 0.0, 0.0, 0.0, 0.0, 0.0, 0.0, 0.0, 0.0, 0.0, 1.6776155311710951E9, 0.0, 2023-02-28 12:18:51.171
98.0, 26393.83392260479, -4467.97960614915, 16113.551391786505, -3329.4040953402637, 15006.4918406596, 7338.211815144041, -187500.02235174447, -187500.02235174447, -0.184, -0.77, -0.622, 192.0, 0.0, 0.0, 0.0, 0.0, 0.0, 0.0, 0.0, 0.0, 0.0, 1.6776155311750996E9, 0.0, 2023-02-28 12:18:51.175
99.0, 26355.50068086394, -4462.324614801957, 15938.760750146002, -3324.41965632673, 14924.349179786346, 7258.013756038399, -187500.02235174447, -187500.02235174447, -0.184, -0.77, -0.622, 192.0, 0.0, 0.0, 0.0, 0.0, 0.0, 0.0, 0.0, 0.0, 0.0, 1.6776155311802013E9, 0.0, 2023-02-28 12:18:51.180
100.0, 26345.442395859052, -4459.709460700687, 15856.819254972846, -3322.542109792484, 14885.881827578763, 7243.5521773758155, -187500.02235174447, -187500.02235174447, -0.184, -0.77, -0.622, 192.0, 0.0, 0.0, 0.0, 0.0, 0.0, 0.0, 0.0, 0.0, 0.0, 1.6776155311841533E9, 0.0, 2023-02-28 12:18:51.184
101.0, 26350.046855216846, -4457.720155444164, 16015.449585372162, -3323.9279179487135, 14971.82428500942, 7321.716227736024, -187500.02235174447, -187500.02235174447, -0.184, -0.77, -0.622, 192.0, 0.0, 0.0, 0.0, 0.0, 0.0, 0.0, 0.0, 0.0, 0.0, 1.6776155311881316E9, 0.0, 2023-02-28 12:18:51.188
102.0, 26349.421006372097, -4459.21772232267, 16117.932333699744, -3324.5761185379174, 15031.16816653826, 7344.135027424697, -187500.02235174447, -187500.02235174447, -0.184, -0.77, -0.622, 192.0, 0.0, 0.0, 0.0, 0.0, 0.0, 0.0, 0.0, 0.0, 0.0, 1.6776155311921349E9, 0.0, 2023-02-28 12:18:51.192
103.0, 26355.724198308493, -4457.4519345107, 15969.96378540561, -3321.938612692191, 14952.19945337766, 7274.688157402058, -187500.02235174447, -187500.02235174447, -0.184, -0.77, -0.622, 192.0, 0.0, 0.0, 0.0, 0.0, 0.0, 0.0, 0.0, 0.0, 0.0, 1.677615531195165E9, 0.0, 2023-02-28 12:18:51.195
104.0, 26351.030331972877, -4458.636576966832, 15849.934917680612, -3321.4468743141742, 14888.407574702213, 7241.540520374838, -187500.02235174447, -187500.02235174447, -0.18, -0.77, -0.626, 192.0, 250.0, 96.0, 231.0, 240.0, 236.0, 112.0, 0.0, 0.0, 0.0, 1.6776155311991122E9, 0.0, 2023-02-28 12:18:51.199
105.0, 26374.052628761845, -4457.764858933075, 15979.21740761011, -3322.832682470403, 14957.519168558023, 7304.795957183356, -187500.02235174447, -187500.02235174447, -0.18, -0.77, -0.626, 192.0, 0.0, 0.0, 0.0, 0.0, 0.0, 0.0, 0.0, 0.0, 0.0, 1.6776155312031713E9, 0.0, 2023-02-28 12:18:51.203
106.0, 26401.94760584207, -4457.094306599415, 16115.406586576295, -3322.7209237481266, 15030.11763454886, 7347.174864670618, -187500.02235174447, -187500.02235174447, -0.18, -0.77, -0.626, 192.0, 0.0, 0.0, 0.0, 0.0, 0.0, 0.0, 0.0, 0.0, 0.0, 1.6776155312081432E9, 0.0, 2023-02-28 12:18:51.208
107.0, 26378.545329397362, -4451.506370485588, 15998.328149119396, -3318.161167879244, 14970.952566975662, 7287.071023830298, -187500.02235174447, -187500.02235174447, -0.18, -0.77, -0.626, 192.0, 0.0, 0.0, 0.0, 0.0, 0.0, 0.0, 0.0, 0.0, 0.0, 1.677615531212149E9, 0.0, 2023-02-28 12:18:51.212
108.0, 26344.280105147376, -4447.751277417097, 15846.51510077895, -3316.4624353006407, 14892.877923593274, 7241.205244208008, -187500.02235174447, -187500.02235174447, -0.18, -0.77, -0.626, 192.0, 0.0, 0.0, 0.0, 0.0, 0.0, 0.0, 0.0, 0.0, 0.0, 1.6776155312161384E9, 0.0, 2023-02-28 12:18:51.216
109.0, 26384.200320744556, -4449.897044884807, 15941.711180414104, -3318.4740923016184, 14945.158653874238, 7297.956323380033, -187500.02235174447, -187500.02235174447, -0.18, -0.77, -0.626, 192.0, 0.0, 0.0, 0.0, 0.0, 0.0, 0.0, 0.0, 0.0, 0.0, 1.6776155312202203E9, 0.0, 2023-02-28 12:18:51.220
110.0, 26396.113800539235, -4449.919396629261, 16108.589304517425, -3319.4575690576517, 15036.376122996346, 7355.60147233027, -187500.02235174447, -187500.02235174447, -0.18, -0.77, -0.626, 192.0, 0.0, 0.0, 0.0, 0.0, 0.0, 0.0, 0.0, 0.0, 0.0, 1.6776155312233105E9, 0.0, 2023-02-28 12:18:51.223
111.0, 26354.941887252557, -4446.253710538592, 16033.55449838096, -3316.8647667008363, 14999.07106150044, 7305.980599639488, -187500.02235174447, -187500.02235174447, -0.18, -0.77, -0.626, 192.0, 0.0, 0.0, 0.0, 0.0, 0.0, 0.0, 0.0, 0.0, 0.0, 1.677615531227229E9, 0.0, 2023-02-28 12:18:51.227
112.0, 26331.53961080785, -4441.671602925254, 15859.143836396199, -3314.7637027220376, 14906.221915033093, 7243.194549464531, -187500.02235174447, -187500.02235174447, -0.18, -0.77, -0.626, 192.0, 0.0, 0.0, 0.0, 0.0, 0.0, 0.0, 0.0, 0.0, 0.0, 1.6776155312312047E9, 0.0, 2023-02-28 12:18:51.231
113.0, 26369.068189748312, -4440.151684302293, 15912.184525988643, -3316.931821934202, 14934.563927002422, 7283.628855184181, -187500.02235174447, -187500.02235174447, -0.18, -0.77, -0.626, 192.0, 0.0, 0.0, 0.0, 0.0, 0.0, 0.0, 0.0, 0.0, 0.0, 1.6776155312351656E9, 0.0, 2023-02-28 12:18:51.235
114.0, 26414.755155414958, -4442.073934325449, 16094.217132832664, -3319.166996379733, 15028.396550225802, 7352.516931595437, -187500.02235174447, -187500.02235174447, -0.18, -0.77, -0.626, 192.0, 0.0, 0.0, 0.0, 0.0, 0.0, 0.0, 0.0, 0.0, 0.0, 1.6776155312401693E9, 0.0, 2023-02-28 12:18:51.240
115.0, 26410.061289079345, -4445.225530293647, 16063.215263273152, -3317.423560312219, 15013.68910237421, 7320.330419579795, -187500.02235174447, -187500.02235174447, -0.182, -0.772, -0.626, 192.0, 250.0, 80.0, 231.0, 224.0, 236.0, 112.0, 0.0, 0.0, 0.0, 1.677615531244274E9, 0.0, 2023-02-28 12:18:51.244
116.0, 26365.469558891007, -4445.203178549192, 15879.014537216966, -3315.5683655224284, 14918.515374483512, 7249.38598267865, -187500.02235174447, -187500.02235174447, -0.182, -0.772, -0.626, 192.0, 0.0, 0.0, 0.0, 0.0, 0.0, 0.0, 0.0, 0.0, 0.0, 1.6776155312472312E9, 0.0, 2023-02-28 12:18:51.247
117.0, 26384.803817844848, -4444.286757026524, 15886.256502420487, -3316.909470189747, 14921.979894874084, 7272.408279467617, -187500.02235174447, -187500.02235174447, -0.182, -0.772, -0.626, 192.0, 0.0, 0.0, 0.0, 0.0, 0.0, 0.0, 0.0, 0.0, 0.0, 1.6776155312512708E9, 0.0, 2023-02-28 12:18:51.251
118.0, 26389.16240801363, -4447.237187294625, 16070.479580221127, -3319.7704934800263, 15017.243029742604, 7350.393515872182, -187500.02235174447, -187500.02235174447, -0.182, -0.772, -0.626, 192.0, 0.0, 0.0, 0.0, 0.0, 0.0, 0.0, 0.0, 0.0, 0.0, 1.6776155312551825E9, 0.0, 2023-02-28 12:18:51.255
119.0, 26376.310154951832, -4448.757105917586, 16091.512571753572, -3320.5081010470512, 15026.876631602841, 7334.4790738200045, -187500.02235174447, -187500.02235174447, -0.182, -0.772, -0.626, 192.0, 0.0, 0.0, 0.0, 0.0, 0.0, 0.0, 0.0, 0.0, 0.0, 1.6776155312592058E9, 0.0, 2023-02-28 12:18:51.259
120.0, 26354.2713349189, -4446.410172749779, 15911.513973654983, -3319.614031268839, 14931.702903712143, 7252.3587646912065, -187500.02235174447, -187500.02235174447, -0.182, -0.772, -0.626, 192.0, 0.0, 0.0, 0.0, 0.0, 0.0, 0.0, 0.0, 0.0, 0.0, 1.6776155312643716E9, 0.0, 2023-02-28 12:18:51.264
121.0, 26379.729971853492, -4446.410172749779, 15871.28083363543, -3321.424522569719, 14908.054758078428, 7254.035145525354, -187500.02235174447, -187500.02235174447, -0.182, -0.772, -0.626, 192.0, 0.0, 0.0, 0.0, 0.0, 0.0, 0.0, 0.0, 0.0, 0.0, 1.6776155312682052E9, 0.0, 2023-02-28 12:18:51.268
122.0, 26411.00006234647, -4446.030193094039, 16046.026771787021, -3323.190310381688, 14998.556971377966, 7335.64136453168, -187500.02235174447, -187500.02235174447, -0.182, -0.772, -0.626, 192.0, 0.0, 0.0, 0.0, 0.0, 0.0, 0.0, 0.0, 0.0, 0.0, 1.6776155312722058E9, 0.0, 2023-02-28 12:18:51.272
123.0, 26408.496666967472, -4445.985489605127, 16111.875010952355, -3322.743275492582, 15033.671561917254, 7349.588853071792, -187500.02235174447, -187500.02235174447, -0.182, -0.772, -0.626, 192.0, 0.0, 0.0, 0.0, 0.0, 0.0, 0.0, 0.0, 0.0, 0.0, 1.6776155312752216E9, 0.0, 2023-02-28 12:18:51.275
124.0, 26364.195509457055, -4448.131257072837, 15946.315639771896, -3322.519758048029, 14947.86321495333, 7271.223637011485, -187500.02235174447, -187500.02235174447, -0.182, -0.772, -0.626, 192.0, 0.0, 0.0, 0.0, 0.0, 0.0, 0.0, 0.0, 0.0, 0.0, 1.6776155312792177E9, 0.0, 2023-02-28 12:18:51.279
125.0, 26349.08573020527, -4448.600643706399, 15860.484941063518, -3323.8608627153476, 14901.148069041737, 7254.973918792477, -187500.02235174447, -187500.02235174447, -0.182, -0.772, -0.624, 192.0, 250.0, 80.0, 231.0, 224.0, 236.0, 128.0, 0.0, 0.0, 0.0, 1.6776155312832832E9, 0.0, 2023-02-28 12:18:51.283
126.0, 26391.03995454788, -4448.533588473033, 16013.370873137817, -3325.6042987828614, 14983.134267703805, 7328.287640605884, -187500.02235174447, -187500.02235174447, -0.182, -0.772, -0.624, 192.0, 0.0, 0.0, 0.0, 0.0, 0.0, 0.0, 0.0, 0.0, 0.0, 1.6776155312872148E9, 0.0, 2023-02-28 12:18:51.287
127.0, 26411.22357979102, -4450.366431518368, 16122.626200035358, -3325.805464482959, 15041.360562009879, 7352.293414150884, -187500.02235174447, -187500.02235174447, -0.182, -0.772, -0.624, 192.0, 0.0, 0.0, 0.0, 0.0, 0.0, 0.0, 0.0, 0.0, 0.0, 1.677615531291254E9, 0.0, 2023-02-28 12:18:51.291
128.0, 26377.69596310806, -4449.5617687179765, 15981.407878566728, -3323.8608627153476, 14965.67755528421, 7285.05936682932, -187500.02235174447, -187500.02235174447, -0.182, -0.772, -0.624, 192.0, 0.0, 0.0, 0.0, 0.0, 0.0, 0.0, 0.0, 0.0, 0.0, 1.6776155312962372E9, 0.0, 2023-02-28 12:18:51.296
129.0, 26354.852480274738, -4449.472361740156, 15855.813426472358, -3323.771455737526, 14900.432813219168, 7246.8602355552, -187500.02235174447, -187500.02235174447, -0.182, -0.772, -0.624, 192.0, 0.0, 0.0, 0.0, 0.0, 0.0, 0.0, 0.0, 0.0, 0.0, 1.6776155313003216E9, 0.0, 2023-02-28 12:18:51.300
130.0, 26382.74745735496, -4447.930091372739, 15976.266977342008, -3324.710229004649, 14968.382116363302, 7315.591849755269, -187500.02235174447, -187500.02235174447, -0.182, -0.772, -0.624, 192.0, 0.0, 0.0, 0.0, 0.0, 0.0, 0.0, 0.0, 0.0, 0.0, 1.6776155313032343E9, 0.0, 2023-02-28 12:18:51.303
131.0, 26405.076850065812, -4445.851379138396, 16117.977037188655, -3324.129083648811, 15048.557823724488, 7361.681146822113, -187500.02235174447, -187500.02235174447, -0.182, -0.772, -0.624, 192.0, 0.0, 0.0, 0.0, 0.0, 0.0, 0.0, 0.0, 0.0, 0.0, 1.6776155313072727E9, 0.0, 2023-02-28 12:18:51.307
132.0, 26405.054498321355, -4445.829027393941, 16010.35338763635, -3322.0503714144675, 14994.734823076109, 7300.504422247937, -187500.02235174447, -187500.02235174447, -0.182, -0.772, -0.624, 192.0, 0.0, 0.0, 0.0, 0.0, 0.0, 0.0, 0.0, 0.0, 0.0, 1.6776155313113103E9, 0.0, 2023-02-28 12:18:51.311
133.0, 26380.13230325369, -4442.230396536636, 15855.522853794439, -3320.4410458136854, 14913.106252325328, 7245.072095998776, -187500.02235174447, -187500.02235174447, -0.182, -0.772, -0.624, 192.0, 0.0, 0.0, 0.0, 0.0, 0.0, 0.0, 0.0, 0.0, 0.0, 1.677615531315286E9, 0.0, 2023-02-28 12:18:51.315
134.0, 26390.905844081146, -4439.861111624374, 15941.621773436282, -3321.7597987365484, 14954.300517356458, 7302.381968782183, -187500.02235174447, -187500.02235174447, -0.182, -0.772, -0.624, 192.0, 0.0, 0.0, 0.0, 0.0, 0.0, 0.0, 0.0, 0.0, 0.0, 1.67761553131943E9, 0.0, 2023-02-28 12:18:51.319
135.0, 26414.59869320377, -4441.425733736245, 16109.751595229101, -3322.519758048029, 15042.522852721555, 7367.894931780688, -187500.02235174447, -187500.02235174447, -0.18, -0.766, -0.616, 192.0, 250.0, 96.0, 232.0, 16.0, 236.0, 192.0, 0.0, 0.0, 0.0, 1.677615531324342E9, 0.0, 2023-02-28 12:18:51.324
136.0, 26397.32079473982, -4440.464608724667, 16043.299858963474, -3320.6645632582386, 15006.737709848609, 7321.850338202756, -187500.02235174447, -187500.02235174447, -0.18, -0.766, -0.616, 192.0, 0.0, 0.0, 0.0, 0.0, 0.0, 0.0, 0.0, 0.0, 0.0, 1.677615531328388E9, 0.0, 2023-02-28 12:18:51.328
137.0, 26387.68719287958, -4439.324669757446, 15868.084534178322, -3318.0494091569676, 14913.888563381262, 7253.856331569712, -187500.02235174447, -187500.02235174447, -0.18, -0.766, -0.616, 192.0, 0.0, 0.0, 0.0, 0.0, 0.0, 0.0, 0.0, 0.0, 0.0, 1.6776155313313403E9, 0.0, 2023-02-28 12:18:51.331
138.0, 26392.626928404206, -4440.151684302293, 15909.144688742721, -3318.384685323797, 14935.05566538044, 7293.441271000061, -187500.02235174447, -187500.02235174447, -0.18, -0.766, -0.616, 192.0, 0.0, 0.0, 0.0, 0.0, 0.0, 0.0, 0.0, 0.0, 0.0, 1.6776155313353608E9, 0.0, 2023-02-28 12:18:51.335
139.0, 26407.915521611634, -4438.832931379429, 16089.143286841309, -3319.614031268839, 15030.296448504503, 7366.620882346736, -187500.02235174447, -187500.02235174447, -0.18, -0.766, -0.616, 192.0, 0.0, 0.0, 0.0, 0.0, 0.0, 0.0, 0.0, 0.0, 0.0, 1.6776155313393478E9, 0.0, 2023-02-28 12:18:51.339
140.0, 26386.189626001076, -4435.636631922321, 16068.378516242328, -3317.5353190344954, 15019.165279765759, 7338.927070966611, -187500.02235174447, -187500.02235174447, -0.18, -0.766, -0.616, 192.0, 0.0, 0.0, 0.0, 0.0, 0.0, 0.0, 0.0, 0.0, 0.0, 1.6776155313433535E9, 0.0, 2023-02-28 12:18:51.343
141.0, 26359.613401843715, -4434.340230743913, 15886.122391953755, -3316.1495108782665, 14921.868136151808, 7262.908788074111, -187500.02235174447, -187500.02235174447, -0.18, -0.766, -0.616, 192.0, 0.0, 0.0, 0.0, 0.0, 0.0, 0.0, 0.0, 0.0, 0.0, 1.6776155313473432E9, 0.0, 2023-02-28 12:18:51.347
142.0, 26371.862157805226, -4434.831969121929, 15883.95427274159, -3317.289449845487, 14922.516336741011, 7278.353843492729, -187500.02235174447, -187500.02235174447, -0.18, -0.766, -0.616, 192.0, 0.0, 0.0, 0.0, 0.0, 0.0, 0.0, 0.0, 0.0, 0.0, 1.6776155313523493E9, 0.0, 2023-02-28 12:18:51.352
143.0, 26404.719222154527, -4434.2955272550025, 16065.741010396601, -3317.8482434568696, 15019.031169299027, 7356.272024663928, -187500.02235174447, -187500.02235174447, -0.18, -0.766, -0.616, 192.0, 0.0, 0.0, 0.0, 0.0, 0.0, 0.0, 0.0, 0.0, 0.0, 1.6776155313563924E9, 0.0, 2023-02-28 12:18:51.356
144.0, 26404.585111687793, -4432.730905143131, 16092.920731654256, -3316.03775215599, 15036.711399163176, 7345.297318136373, -187500.02235174447, -187500.02235174447, -0.18, -0.766, -0.616, 192.0, 0.0, 0.0, 0.0, 0.0, 0.0, 0.0, 0.0, 0.0, 0.0, 1.6776155313593433E9, 0.0, 2023-02-28 12:18:51.359
