%OpenBCI Raw EEG Data
%Number of channels = 8
%Sample Rate = 250 Hz
%Board = OpenBCI_GUI$BoardCytonSerial
Sample Index, EXG Channel 0, EXG Channel 1, EXG Channel 2, EXG Channel 3, EXG Channel 4, EXG Channel 5, EXG Channel 6, EXG Channel 7, Accel Channel 0, Accel Channel 1, Accel Channel 2, Other, Other, Other, Other, Other, Other, Other, Analog Channel 0, Analog Channel 1, Analog Channel 2, Timestamp, Other, Timestamp (Formatted)
168.0, 27341.927867165552, -4053.958243603497, 14231.24393597173, -2961.2485124169007, 14866.61462385829, 6999.739348857325, -187500.02235174447, -187500.02235174447, -0.194, -0.752, -0.644, 192.0, 249.0, 240.0, 232.0, 128.0, 235.0, 224.0, 0.0, 0.0, 0.0, 1.6776148087238092E9, 0.0, 2023-02-28 12:06:48.723
169.0, 27420.069565781305, -4058.9203308725755, 14612.117661490163, -2971.9773497554484, 15051.731771437142, 7248.581319878259, -187500.02235174447, -187500.02235174447, -0.194, -0.752, -0.644, 192.0, 0.0, 0.0, 0.0, 0.0, 0.0, 0.0, 0.0, 0.0, 0.0, 1.6776148087238572E9, 0.0, 2023-02-28 12:06:48.723
170.0, 27556.996352314516, -4052.907711614098, 15429.588011454109, -2974.5478003678086, 15476.303157365699, 7564.187951587195, -187500.02235174447, -187500.02235174447, -0.194, -0.752, -0.644, 192.0, 0.0, 0.0, 0.0, 0.0, 0.0, 0.0, 0.0, 0.0, 0.0, 1.6776148087238812E9, 0.0, 2023-02-28 12:06:48.723
171.0, 27492.220996883036, -4047.9232726005644, 15139.104740512937, -2964.377756640644, 15340.739827244262, 7343.687992535591, -187500.02235174447, -187500.02235174447, -0.194, -0.752, -0.644, 192.0, 0.0, 0.0, 0.0, 0.0, 0.0, 0.0, 0.0, 0.0, 0.0, 1.677614808723904E9, 0.0, 2023-02-28 12:06:48.723
0.0, 0.0, 0.0, 0.0, 0.0, 0.0, 0.0, 0.0, 0.0, -0.194, -0.752, -0.644, 192.0, 0.0, 0.0, 0.0, 0.0, 0.0, 0.0, 0.0, 0.0, 0.0, 1.6776148088197303E9, 0.0, 2023-02-28 12:06:48.819
1.0, 27158.46474867639, -4149.86957906122, 15224.980142710227, -2958.141619937613, 15376.904949772948, 7483.431098870171, -187500.02235174447, -187500.02235174447, -0.182, -0.76, -0.64, 192.0, 250.0, 80.0, 232.0, 64.0, 236.0, 0.0, 0.0, 0.0, 0.0, 1.6776148088358488E9, 0.0, 2023-02-28 12:06:48.835
2.0, 27034.41256694944, -4151.680070362099, 14472.553369111225, -2953.470105346454, 14976.5852065784, 7187.158726115075, -187500.02235174447, -187500.02235174447, -0.182, -0.76, -0.64, 192.0, 0.0, 0.0, 0.0, 0.0, 0.0, 0.0, 0.0, 0.0, 0.0, 1.6776148088387952E9, 0.0, 2023-02-28 12:06:48.838
3.0, 27059.334762017104, -4152.529436651402, 14591.241132168905, -2959.952111238493, 15032.553974694489, 7320.218660857518, -187500.02235174447, -187500.02235174447, -0.182, -0.76, -0.64, 192.0, 0.0, 0.0, 0.0, 0.0, 0.0, 0.0, 0.0, 0.0, 0.0, 1.677614808842817E9, 0.0, 2023-02-28 12:06:48.842
4.0, 27178.29074600825, -4153.423506429614, 15363.069219955114, -2966.4117653860767, 15441.747360437796, 7638.41809492327, -187500.02235174447, -187500.02235174447, -0.182, -0.76, -0.64, 192.0, 0.0, 0.0, 0.0, 0.0, 0.0, 0.0, 0.0, 0.0, 0.0, 1.6776148088468144E9, 0.0, 2023-02-28 12:06:48.846
5.0, 27154.910821307996, -4151.657718617645, 15338.482301054277, -2959.818000771761, 15437.589935969108, 7542.171483298717, -187500.02235174447, -187500.02235174447, -0.182, -0.76, -0.64, 192.0, 0.0, 0.0, 0.0, 0.0, 0.0, 0.0, 0.0, 0.0, 0.0, 1.6776148088507574E9, 0.0, 2023-02-28 12:06:48.850
6.0, 27027.058843023642, -4148.640233116178, 14565.26840511184, -2951.8160762567613, 15029.447082215202, 7213.4443775945165, -187500.02235174447, -187500.02235174447, -0.182, -0.76, -0.64, 192.0, 0.0, 0.0, 0.0, 0.0, 0.0, 0.0, 0.0, 0.0, 0.0, 1.6776148088537934E9, 0.0, 2023-02-28 12:06:48.853
7.0, 27032.06563378163, -4149.377840683203, 14488.624273374591, -2956.9122739925715, 14982.664881070243, 7266.9768055649765, -187500.02235174447, -187500.02235174447, -0.182, -0.76, -0.64, 192.0, 0.0, 0.0, 0.0, 0.0, 0.0, 0.0, 0.0, 0.0, 0.0, 1.6776148088577726E9, 0.0, 2023-02-28 12:06:48.857
8.0, 27170.110007537605, -4148.841398816276, 15248.270660432658, -2964.4895153629204, 15381.867037042028, 7599.704873526678, -187500.02235174447, -187500.02235174447, -0.176, -0.758, -0.644, 192.0, 250.0, 128.0, 232.0, 80.0, 235.0, 224.0, 0.0, 0.0, 0.0, 1.6776148088627913E9, 0.0, 2023-02-28 12:06:48.862
9.0, 27185.689173422954, -4148.01438427143, 15426.056435830169, -2960.1979804275015, 15484.863875492083, 7589.735995499611, -187500.02235174447, -187500.02235174447, -0.176, -0.758, -0.644, 192.0, 0.0, 0.0, 0.0, 0.0, 0.0, 0.0, 0.0, 0.0, 0.0, 1.6776148088668742E9, 0.0, 2023-02-28 12:06:48.866
10.0, 27047.644799666978, -4150.406020928147, 14685.923121681586, -2952.531332079331, 15091.98726320115, 7258.170218249586, -187500.02235174447, -187500.02235174447, -0.176, -0.758, -0.644, 192.0, 0.0, 0.0, 0.0, 0.0, 0.0, 0.0, 0.0, 0.0, 0.0, 1.6776148088707883E9, 0.0, 2023-02-28 12:06:48.870
11.0, 27011.703194582846, -4153.669375618622, 14418.37274055156, -2956.1076111921802, 14940.598898005355, 7225.179043433553, -187500.02235174447, -187500.02235174447, -0.176, -0.758, -0.644, 192.0, 0.0, 0.0, 0.0, 0.0, 0.0, 0.0, 0.0, 0.0, 0.0, 1.6776148088749E9, 0.0, 2023-02-28 12:06:48.874
12.0, 27137.431757143946, -4155.971605297519, 15116.440071635256, -2964.7800880408395, 15309.335626284555, 7551.290995036483, -187500.02235174447, -187500.02235174447, -0.176, -0.758, -0.644, 192.0, 0.0, 0.0, 0.0, 0.0, 0.0, 0.0, 0.0, 0.0, 0.0, 1.677614808878862E9, 0.0, 2023-02-28 12:06:48.878
13.0, 27183.14107455505, -4156.575102397812, 15486.987291215337, -2963.4166316290657, 15509.048462992725, 7633.74658033211, -187500.02235174447, -187500.02235174447, -0.176, -0.758, -0.644, 192.0, 0.0, 0.0, 0.0, 0.0, 0.0, 0.0, 0.0, 0.0, 0.0, 1.677614808881846E9, 0.0, 2023-02-28 12:06:48.881
14.0, 27060.005314350765, -4155.6586808751445, 14826.001504182996, -2954.2971198913006, 15163.557548947043, 7313.937820665577, -187500.02235174447, -187500.02235174447, -0.176, -0.758, -0.644, 192.0, 0.0, 0.0, 0.0, 0.0, 0.0, 0.0, 0.0, 0.0, 0.0, 1.6776148088858204E9, 0.0, 2023-02-28 12:06:48.885
15.0, 27005.690575324366, -4154.116410507728, 14379.972443577344, -2954.5206373358533, 14922.672798952199, 7194.4230430630505, -187500.02235174447, -187500.02235174447, -0.176, -0.758, -0.644, 192.0, 0.0, 0.0, 0.0, 0.0, 0.0, 0.0, 0.0, 0.0, 0.0, 1.677614808890796E9, 0.0, 2023-02-28 12:06:48.890
16.0, 27130.56977159617, -4152.104753506751, 14969.924386730718, -2962.120230450658, 15230.67983754633, 7493.802308297433, -187500.02235174447, -187500.02235174447, -0.176, -0.758, -0.644, 192.0, 0.0, 0.0, 0.0, 0.0, 0.0, 0.0, 0.0, 0.0, 0.0, 1.6776148088949137E9, 0.0, 2023-02-28 12:06:48.894
17.0, 27205.71633645491, -4151.143628495172, 15506.410957146998, -2961.8743612616495, 15519.21850671989, 7657.931167832753, -187500.02235174447, -187500.02235174447, -0.176, -0.758, -0.644, 192.0, 0.0, 0.0, 0.0, 0.0, 0.0, 0.0, 0.0, 0.0, 0.0, 1.677614808898831E9, 0.0, 2023-02-28 12:06:48.898
18.0, 27094.583463023122, -4153.535265151891, 14970.259662897548, -2953.7159745354625, 15239.06174171707, 7373.259350449962, -187500.02235174447, -187500.02235174447, -0.18, -0.756, -0.644, 192.0, 250.0, 96.0, 232.0, 96.0, 235.0, 224.0, 0.0, 0.0, 0.0, 1.6776148089028432E9, 0.0, 2023-02-28 12:06:48.902
19.0, 27000.169694443906, -4156.955082053552, 14379.056022054676, -2952.576035568242, 14923.320999541404, 7177.435717277017, -187500.02235174447, -187500.02235174447, -0.18, -0.756, -0.644, 192.0, 0.0, 0.0, 0.0, 0.0, 0.0, 0.0, 0.0, 0.0, 0.0, 1.6776148089057987E9, 0.0, 2023-02-28 12:06:48.905
20.0, 27082.22294833934, -4159.860808832742, 14827.208498383583, -2961.4496781169987, 15151.107627285437, 7431.910327900688, -187500.02235174447, -187500.02235174447, -0.18, -0.756, -0.644, 192.0, 0.0, 0.0, 0.0, 0.0, 0.0, 0.0, 0.0, 0.0, 0.0, 1.677614808909943E9, 0.0, 2023-02-28 12:06:48.909
21.0, 27181.867025121097, -4160.799582099865, 15494.698643052418, -2965.048308974303, 15504.198134445924, 7667.587121437446, -187500.02235174447, -187500.02235174447, -0.18, -0.756, -0.644, 192.0, 0.0, 0.0, 0.0, 0.0, 0.0, 0.0, 0.0, 0.0, 0.0, 1.6776148089138439E9, 0.0, 2023-02-28 12:06:48.913
22.0, 27094.427000811935, -4160.307843721848, 15116.685940824264, -2956.8675705036608, 15309.782661173662, 7432.491473256526, -187500.02235174447, -187500.02235174447, -0.18, -0.756, -0.644, 192.0, 0.0, 0.0, 0.0, 0.0, 0.0, 0.0, 0.0, 0.0, 0.0, 1.6776148089178598E9, 0.0, 2023-02-28 12:06:48.917
23.0, 26983.361182613517, -4162.274797233916, 14416.338731806129, -2953.984195468926, 14940.308325327436, 7170.529028240327, -187500.02235174447, -187500.02235174447, -0.18, -0.756, -0.644, 192.0, 0.0, 0.0, 0.0, 0.0, 0.0, 0.0, 0.0, 0.0, 0.0, 1.677614808922842E9, 0.0, 2023-02-28 12:06:48.922
24.0, 27049.76821539023, -4164.979358313008, 14693.120383396195, -2961.7402507949178, 15081.683109007254, 7364.832742790311, -187500.02235174447, -187500.02235174447, -0.18, -0.756, -0.644, 192.0, 0.0, 0.0, 0.0, 0.0, 0.0, 0.0, 0.0, 0.0, 0.0, 1.6776148089268377E9, 0.0, 2023-02-28 12:06:48.926
25.0, 27170.24411800434, -4165.560503668846, 15439.132206336524, -2966.277654919345, 15476.97370969936, 7660.479266700658, -187500.02235174447, -187500.02235174447, -0.18, -0.756, -0.644, 192.0, 0.0, 0.0, 0.0, 0.0, 0.0, 0.0, 0.0, 0.0, 0.0, 1.6776148089308257E9, 0.0, 2023-02-28 12:06:48.930
26.0, 27116.93520747843, -4165.068765290829, 15247.823625543551, -2959.5274280938424, 15382.202313208856, 7495.344578664849, -187500.02235174447, -187500.02235174447, -0.18, -0.756, -0.644, 192.0, 0.0, 0.0, 0.0, 0.0, 0.0, 0.0, 0.0, 0.0, 0.0, 1.6776148089339142E9, 0.0, 2023-02-28 12:06:48.933
27.0, 27008.931578270385, -4165.001710057462, 14486.322043695694, -2953.4254018575434, 14973.724183288121, 7191.092633139209, -187500.02235174447, -187500.02235174447, -0.18, -0.756, -0.644, 192.0, 0.0, 0.0, 0.0, 0.0, 0.0, 0.0, 0.0, 0.0, 0.0, 1.6776148089379156E9, 0.0, 2023-02-28 12:06:48.937
28.0, 27042.123918786518, -4166.722794380521, 14573.471495326936, -2960.4214978720547, 15013.130308762826, 7307.701683962547, -187500.02235174447, -187500.02235174447, -0.184, -0.764, -0.644, 192.0, 250.0, 64.0, 232.0, 32.0, 235.0, 224.0, 0.0, 0.0, 0.0, 1.6776148089419172E9, 0.0, 2023-02-28 12:06:48.941
29.0, 27141.745643823822, -4172.511896194446, 15350.865167482516, -2968.848105531705, 15425.922325363437, 7627.778664562544, -187500.02235174447, -187500.02235174447, -0.184, -0.764, -0.644, 192.0, 0.0, 0.0, 0.0, 0.0, 0.0, 0.0, 0.0, 0.0, 0.0, 1.677614808946857E9, 0.0, 2023-02-28 12:06:48.946
30.0, 27117.78457376773, -4173.048338061373, 15362.644536810463, -2964.087183962725, 15437.209956313367, 7545.63600368929, -187500.02235174447, -187500.02235174447, -0.184, -0.764, -0.644, 192.0, 0.0, 0.0, 0.0, 0.0, 0.0, 0.0, 0.0, 0.0, 0.0, 1.6776148089508595E9, 0.0, 2023-02-28 12:06:48.950
31.0, 26977.080342421574, -4172.9142275946415, 14589.117716445651, -2956.5546460812866, 15029.380026981835, 7213.980819461444, -187500.02235174447, -187500.02235174447, -0.184, -0.764, -0.644, 192.0, 0.0, 0.0, 0.0, 0.0, 0.0, 0.0, 0.0, 0.0, 0.0, 1.677614808954881E9, 0.0, 2023-02-28 12:06:48.954
32.0, 26976.298031365637, -4174.9705880845295, 14479.214188958907, -2961.606140328186, 14964.917595972729, 7251.934081546555, -187500.02235174447, -187500.02235174447, -0.184, -0.764, -0.644, 192.0, 0.0, 0.0, 0.0, 0.0, 0.0, 0.0, 0.0, 0.0, 0.0, 1.6776148089579384E9, 0.0, 2023-02-28 12:06:48.957
33.0, 27108.262730629773, -4176.736375896499, 15234.189061425814, -2970.189210199024, 15362.555129832643, 7590.853582722376, -187500.02235174447, -187500.02235174447, -0.184, -0.764, -0.644, 192.0, 0.0, 0.0, 0.0, 0.0, 0.0, 0.0, 0.0, 0.0, 0.0, 1.6776148089618647E9, 0.0, 2023-02-28 12:06:48.961
34.0, 27109.827352741642, -4181.184373043105, 15448.92227040795, -2967.439945631021, 15483.00868070229, 7598.520231070546, -187500.02235174447, -187500.02235174447, -0.184, -0.764, -0.644, 192.0, 0.0, 0.0, 0.0, 0.0, 0.0, 0.0, 0.0, 0.0, 0.0, 1.6776148089660597E9, 0.0, 2023-02-28 12:06:48.966
35.0, 26978.019115688698, -4181.407890487658, 14717.595543574756, -2959.6168350716634, 15098.201048159724, 7261.500628173427, -187500.02235174447, -187500.02235174447, -0.184, -0.764, -0.644, 192.0, 0.0, 0.0, 0.0, 0.0, 0.0, 0.0, 0.0, 0.0, 0.0, 1.6776148089699783E9, 0.0, 2023-02-28 12:06:48.969
36.0, 26953.320438065584, -4181.474945721024, 14415.936400405932, -2961.8520095171943, 14933.37928454629, 7212.371493860662, -187500.02235174447, -187500.02235174447, -0.184, -0.764, -0.644, 192.0, 0.0, 0.0, 0.0, 0.0, 0.0, 0.0, 0.0, 0.0, 0.0, 1.67761480897391E9, 0.0, 2023-02-28 12:06:48.973
37.0, 27073.617526724047, -4184.1795068001165, 15100.257408649613, -2971.01622474387, 15289.554332441608, 7537.455265218648, -187500.02235174447, -187500.02235174447, -0.184, -0.764, -0.644, 192.0, 0.0, 0.0, 0.0, 0.0, 0.0, 0.0, 0.0, 0.0, 0.0, 1.6776148089790149E9, 0.0, 2023-02-28 12:06:48.979
38.0, 27123.283102903737, -4182.369015499236, 15501.940608255936, -2970.524486365853, 15504.511058868296, 7632.181958220239, -187500.02235174447, -187500.02235174447, -0.184, -0.764, -0.644, 192.0, 250.0, 64.0, 232.0, 32.0, 235.0, 224.0, 0.0, 0.0, 0.0, 1.6776148089829574E9, 0.0, 2023-02-28 12:06:48.982
39.0, 27002.002537489243, -4180.379710242714, 14858.411533643191, -2962.366099639666, 15165.703316414752, 7316.128291622197, -187500.02235174447, -187500.02235174447, -0.184, -0.764, -0.644, 192.0, 0.0, 0.0, 0.0, 0.0, 0.0, 0.0, 0.0, 0.0, 0.0, 1.6776148089859605E9, 0.0, 2023-02-28 12:06:48.985
40.0, 26927.191248797328, -4184.1795068001165, 14384.286330257217, -2962.63432057313, 14916.280200037982, 7184.364758058162, -187500.02235174447, -187500.02235174447, -0.184, -0.764, -0.644, 192.0, 0.0, 0.0, 0.0, 0.0, 0.0, 0.0, 0.0, 0.0, 0.0, 1.677614808990908E9, 0.0, 2023-02-28 12:06:48.990
41.0, 27035.910133827943, -4184.872410878231, 14954.076999911906, -2970.502134621398, 15210.071529158537, 7478.312549389905, -187500.02235174447, -187500.02235174447, -0.184, -0.764, -0.644, 192.0, 0.0, 0.0, 0.0, 0.0, 0.0, 0.0, 0.0, 0.0, 0.0, 1.6776148089939044E9, 0.0, 2023-02-28 12:06:48.993
42.0, 27123.17134418146, -4183.464250977547, 15518.011512519302, -2970.3680241546663, 15513.45175665042, 7653.773743364066, -187500.02235174447, -187500.02235174447, -0.184, -0.764, -0.644, 192.0, 0.0, 0.0, 0.0, 0.0, 0.0, 0.0, 0.0, 0.0, 0.0, 1.6776148089980035E9, 0.0, 2023-02-28 12:06:48.998
43.0, 27012.552560872147, -4185.520611467435, 15003.563762135955, -2962.343747895211, 15248.20360519929, 7370.666548093146, -187500.02235174447, -187500.02235174447, -0.184, -0.764, -0.644, 192.0, 0.0, 0.0, 0.0, 0.0, 0.0, 0.0, 0.0, 0.0, 0.0, 1.6776148090019922E9, 0.0, 2023-02-28 12:06:49.001
44.0, 26905.018318297665, -4189.990960358496, 14392.198847794396, -2960.5779600832416, 14918.314208783415, 7170.014938117855, -187500.02235174447, -187500.02235174447, -0.184, -0.764, -0.644, 192.0, 0.0, 0.0, 0.0, 0.0, 0.0, 0.0, 0.0, 0.0, 0.0, 1.6776148090069897E9, 0.0, 2023-02-28 12:06:49.006
45.0, 26987.47390359329, -4195.064806349851, 14811.182297609128, -2969.339843909722, 15137.741284101163, 7418.320467271861, -187500.02235174447, -187500.02235174447, -0.184, -0.764, -0.644, 192.0, 0.0, 0.0, 0.0, 0.0, 0.0, 0.0, 0.0, 0.0, 0.0, 1.6776148090119736E9, 0.0, 2023-02-28 12:06:49.011
46.0, 27083.49699777329, -4199.9151348966525, 15496.933817497948, -2973.5866753562304, 15500.823021033171, 7665.530760947557, -187500.02235174447, -187500.02235174447, -0.184, -0.764, -0.644, 192.0, 0.0, 0.0, 0.0, 0.0, 0.0, 0.0, 0.0, 0.0, 0.0, 1.6776148090160375E9, 0.0, 2023-02-28 12:06:49.016
47.0, 26993.8217990186, -4204.340780298803, 15149.252432495647, -2967.4622973754763, 15322.74667295774, 7438.973479148564, -187500.02235174447, -187500.02235174447, -0.184, -0.764, -0.644, 192.0, 0.0, 0.0, 0.0, 0.0, 0.0, 0.0, 0.0, 0.0, 0.0, 1.6776148090190227E9, 0.0, 2023-02-28 12:06:49.019
48.0, 26888.41097216737, -4202.373826786737, 14436.432950071448, -2963.8189630292613, 14944.778674218498, 7170.841952662701, -187500.02235174447, -187500.02235174447, -0.17400000000000002, -0.754, -0.638, 192.0, 250.0, 144.0, 232.0, 112.0, 236.0, 16.0, 0.0, 0.0, 0.0, 1.6776148090220146E9, 0.0, 2023-02-28 12:06:49.022
49.0, 26944.424443772372, -4202.105605853272, 14681.47512453498, -2970.5915415992195, 15062.751181453608, 7354.841513018789, -187500.02235174447, -187500.02235174447, -0.17400000000000002, -0.754, -0.638, 192.0, 0.0, 0.0, 0.0, 0.0, 0.0, 0.0, 0.0, 0.0, 0.0, 1.6776148090260477E9, 0.0, 2023-02-28 12:06:49.026
50.0, 27047.130709544508, -4208.855832678775, 15440.115683092557, -2978.1017277362025, 15460.098142635601, 7653.058487541496, -187500.02235174447, -187500.02235174447, -0.17400000000000002, -0.754, -0.638, 192.0, 0.0, 0.0, 0.0, 0.0, 0.0, 0.0, 0.0, 0.0, 0.0, 1.6776148090320835E9, 0.0, 2023-02-28 12:06:49.032
51.0, 26991.05018270614, -4210.822786190843, 15282.625291660464, -2971.9997014999035, 15384.325728932112, 7501.156032223229, -187500.02235174447, -187500.02235174447, -0.17400000000000002, -0.754, -0.638, 192.0, 0.0, 0.0, 0.0, 0.0, 0.0, 0.0, 0.0, 0.0, 0.0, 1.677614809036023E9, 0.0, 2023-02-28 12:06:49.036
52.0, 26864.31579164455, -4209.92871641263, 14512.96532308642, -2965.562399096775, 14979.602692079867, 7189.505659282882, -187500.02235174447, -187500.02235174447, -0.17400000000000002, -0.754, -0.638, 192.0, 0.0, 0.0, 0.0, 0.0, 0.0, 0.0, 0.0, 0.0, 0.0, 1.6776148090390365E9, 0.0, 2023-02-28 12:06:49.039
53.0, 26896.83757982702, -4211.113358868761, 14568.688222013501, -2970.9715212549595, 14998.601674866877, 7296.190535568063, -187500.02235174447, -187500.02235174447, -0.17400000000000002, -0.754, -0.638, 192.0, 0.0, 0.0, 0.0, 0.0, 0.0, 0.0, 0.0, 0.0, 0.0, 1.6776148090431275E9, 0.0, 2023-02-28 12:06:49.043
54.0, 27025.136593000483, -4213.348533314292, 15344.18199589038, -2977.721748080462, 15410.544325178185, 7621.408417392781, -187500.02235174447, -187500.02235174447, -0.17400000000000002, -0.754, -0.638, 192.0, 0.0, 0.0, 0.0, 0.0, 0.0, 0.0, 0.0, 0.0, 0.0, 1.677614809046154E9, 0.0, 2023-02-28 12:06:49.046
55.0, 27010.20562770434, -4212.208594347071, 15388.036118511693, -2971.5750183552527, 15444.071941861146, 7556.029564861008, -187500.02235174447, -187500.02235174447, -0.17400000000000002, -0.754, -0.638, 192.0, 0.0, 0.0, 0.0, 0.0, 0.0, 0.0, 0.0, 0.0, 0.0, 1.6776148090500307E9, 0.0, 2023-02-28 12:06:49.050
56.0, 26880.85608254148, -4211.560393757867, 14618.934943549031, -2964.2212944294565, 15041.114692820871, 7220.1946044200195, -187500.02235174447, -187500.02235174447, -0.17400000000000002, -0.754, -0.638, 192.0, 0.0, 0.0, 0.0, 0.0, 0.0, 0.0, 0.0, 0.0, 0.0, 1.6776148090540648E9, 0.0, 2023-02-28 12:06:49.054
57.0, 26872.898861515387, -4216.075446137839, 14476.844904046644, -2969.272788676356, 14961.587186048888, 7239.819436051779, -187500.02235174447, -187500.02235174447, -0.17400000000000002, -0.754, -0.638, 192.0, 0.0, 0.0, 0.0, 0.0, 0.0, 0.0, 0.0, 0.0, 0.0, 1.677614809058052E9, 0.0, 2023-02-28 12:06:49.058
58.0, 26988.34562162705, -4222.289231096414, 15222.722616520241, -2979.1299079811465, 15386.583255122097, 7573.218056347139, -187500.02235174447, -187500.02235174447, -0.176, -0.754, -0.636, 192.0, 250.0, 128.0, 232.0, 112.0, 236.0, 32.0, 0.0, 0.0, 0.0, 1.6776148090630777E9, 0.0, 2023-02-28 12:06:49.063
59.0, 27001.086115966573, -4225.105550897783, 15471.20695962989, -2976.9394370245263, 15586.430202296997, 7596.441518836203, -187500.02235174447, -187500.02235174447, -0.176, -0.754, -0.636, 192.0, 0.0, 0.0, 0.0, 0.0, 0.0, 0.0, 0.0, 0.0, 0.0, 1.6776148090670002E9, 0.0, 2023-02-28 12:06:49.067
60.0, 26871.691867314803, -4227.184263132127, 14751.6819538691, -2969.406899143088, 15238.614706827964, 7261.00888979541, -187500.02235174447, -187500.02235174447, -0.176, -0.754, -0.636, 192.0, 0.0, 0.0, 0.0, 0.0, 0.0, 0.0, 0.0, 0.0, 0.0, 1.677614809069998E9, 0.0, 2023-02-28 12:06:49.069
61.0, 26836.621980264426, -4229.754713744487, 14420.04912138571, -2971.172686955057, 15071.31189957999, 7197.731101242435, -187500.02235174447, -187500.02235174447, -0.176, -0.754, -0.636, 192.0, 0.0, 0.0, 0.0, 0.0, 0.0, 0.0, 0.0, 0.0, 0.0, 1.6776148090740156E9, 0.0, 2023-02-28 12:06:49.074
62.0, 26971.62651677448, -4227.631298021233, 15088.433335832757, -2980.1133847371802, 15430.660895187963, 7517.5622126534245, -187500.02235174447, -187500.02235174447, -0.176, -0.754, -0.636, 192.0, 0.0, 0.0, 0.0, 0.0, 0.0, 0.0, 0.0, 0.0, 0.0, 1.6776148090782025E9, 0.0, 2023-02-28 12:06:49.078
63.0, 27034.01023554924, -4224.278536352937, 15521.1631084875, -2979.3981289146104, 15665.24245324641, 7627.577498862446, -187500.02235174447, -187500.02235174447, -0.176, -0.754, -0.636, 192.0, 0.0, 0.0, 0.0, 0.0, 0.0, 0.0, 0.0, 0.0, 0.0, 1.6776148090820448E9, 0.0, 2023-02-28 12:06:49.082
64.0, 26898.044574027608, -4226.513710798467, 14896.700071895131, -2971.5750183552527, 15339.711646999318, 7311.501480519949, -187500.02235174447, -187500.02235174447, -0.176, -0.754, -0.636, 192.0, 0.0, 0.0, 0.0, 0.0, 0.0, 0.0, 0.0, 0.0, 0.0, 1.6776148090860324E9, 0.0, 2023-02-28 12:06:49.086
65.0, 26814.69491895377, -4228.301850354892, 14397.85383914159, -2971.507963121887, 15070.283719335046, 7164.22583630393, -187500.02235174447, -187500.02235174447, -0.176, -0.754, -0.636, 192.0, 0.0, 0.0, 0.0, 0.0, 0.0, 0.0, 0.0, 0.0, 0.0, 1.6776148090900338E9, 0.0, 2023-02-28 12:06:49.090
66.0, 26930.342844765528, -4225.865510209263, 14945.29276434097, -2979.532239381342, 15354.776722762195, 7454.66440375619, -187500.02235174447, -187500.02235174447, -0.176, -0.754, -0.636, 192.0, 0.0, 0.0, 0.0, 0.0, 0.0, 0.0, 0.0, 0.0, 0.0, 1.6776148090950897E9, 0.0, 2023-02-28 12:06:49.095
67.0, 27015.458287651338, -4225.127902642239, 15532.02605629278, -2980.6498266041076, 15669.57869167074, 7653.8631503418865, -187500.02235174447, -187500.02235174447, -0.176, -0.754, -0.636, 192.0, 0.0, 0.0, 0.0, 0.0, 0.0, 0.0, 0.0, 0.0, 0.0, 1.677614809098074E9, 0.0, 2023-02-28 12:06:49.098
68.0, 26912.126173034452, -4227.296021854403, 15042.679314932742, -2973.2513991894007, 15417.42866247042, 7384.278760466428, -187500.02235174447, -187500.02235174447, -0.17400000000000002, -0.754, -0.64, 192.0, 250.0, 144.0, 232.0, 112.0, 236.0, 0.0, 0.0, 0.0, 0.0, 1.6776148091020696E9, 0.0, 2023-02-28 12:06:49.102
69.0, 26820.01463413413, -4228.637126521722, 14408.247400313307, -2971.7091288219845, 15078.866789205884, 7163.242359547897, -187500.02235174447, -187500.02235174447, -0.17400000000000002, -0.754, -0.64, 192.0, 0.0, 0.0, 0.0, 0.0, 0.0, 0.0, 0.0, 0.0, 0.0, 1.6776148091060977E9, 0.0, 2023-02-28 12:06:49.106
70.0, 26896.144675748907, -4232.928661457141, 14803.672111472144, -2980.471012648465, 15281.440649204333, 7398.4050629621825, -187500.02235174447, -187500.02235174447, -0.17400000000000002, -0.754, -0.64, 192.0, 0.0, 0.0, 0.0, 0.0, 0.0, 0.0, 0.0, 0.0, 0.0, 1.677614809110179E9, 0.0, 2023-02-28 12:06:49.110
71.0, 26996.95104324234, -4235.476760325046, 15503.63934083454, -2985.6789691065514, 15651.362019939665, 7653.7066881307, -187500.02235174447, -187500.02235174447, -0.17400000000000002, -0.754, -0.64, 192.0, 0.0, 0.0, 0.0, 0.0, 0.0, 0.0, 0.0, 0.0, 0.0, 1.6776148091141968E9, 0.0, 2023-02-28 12:06:49.114
72.0, 26936.914257635388, -4233.442751579613, 15184.299967801568, -2977.6770445915517, 15484.953282469904, 7438.101761114808, -187500.02235174447, -187500.02235174447, -0.17400000000000002, -0.754, -0.64, 192.0, 0.0, 0.0, 0.0, 0.0, 0.0, 0.0, 0.0, 0.0, 0.0, 1.6776148091191528E9, 0.0, 2023-02-28 12:06:49.119
73.0, 26828.754166216157, -4232.682792268132, 14455.454284602916, -2972.8043643002948, 15101.106774938915, 7161.811847902757, -187500.02235174447, -187500.02235174447, -0.17400000000000002, -0.754, -0.64, 192.0, 0.0, 0.0, 0.0, 0.0, 0.0, 0.0, 0.0, 0.0, 0.0, 1.677614809123104E9, 0.0, 2023-02-28 12:06:49.123
74.0, 26875.71518131676, -4233.21923413506, 14672.445019775036, -2979.979274270448, 15214.385415838411, 7333.808521486345, -187500.02235174447, -187500.02235174447, -0.17400000000000002, -0.754, -0.64, 192.0, 0.0, 0.0, 0.0, 0.0, 0.0, 0.0, 0.0, 0.0, 0.0, 1.6776148091261268E9, 0.0, 2023-02-28 12:06:49.126
75.0, 26988.7703047717, -4236.303774869893, 15436.517052235253, -2986.3942249291213, 15617.029740456313, 7638.261632712082, -187500.02235174447, -187500.02235174447, -0.17400000000000002, -0.754, -0.64, 192.0, 0.0, 0.0, 0.0, 0.0, 0.0, 0.0, 0.0, 0.0, 0.0, 1.6776148091301217E9, 0.0, 2023-02-28 12:06:49.130
76.0, 26931.79570815512, -4240.774123760953, 15313.873030408984, -2981.3874341711326, 15554.042524581257, 7498.67498858869, -187500.02235174447, -187500.02235174447, -0.17400000000000002, -0.754, -0.64, 192.0, 0.0, 0.0, 0.0, 0.0, 0.0, 0.0, 0.0, 0.0, 0.0, 1.6776148091340992E9, 0.0, 2023-02-28 12:06:49.134
77.0, 26795.695936166758, -4244.88684474073, 14542.44727402297, -2976.402995157599, 15143.977420804194, 7181.302569067785, -187500.02235174447, -187500.02235174447, -0.17400000000000002, -0.754, -0.64, 192.0, 0.0, 0.0, 0.0, 0.0, 0.0, 0.0, 0.0, 0.0, 0.0, 1.6776148091381087E9, 0.0, 2023-02-28 12:06:49.138
78.0, 26816.594817232468, -4249.781876776442, 14563.457913810958, -2982.862649305183, 15145.273821982602, 7272.7882591233565, -187500.02235174447, -187500.02235174447, -0.17400000000000002, -0.76, -0.636, 192.0, 250.0, 144.0, 232.0, 64.0, 236.0, 32.0, 0.0, 0.0, 0.0, 1.6776148091422665E9, 0.0, 2023-02-28 12:06:49.142
79.0, 26947.687798462845, -4254.296929156414, 15337.811748720616, -2991.1998499870124, 15556.568271704708, 7601.224792149639, -187500.02235174447, -187500.02235174447, -0.17400000000000002, -0.76, -0.636, 192.0, 0.0, 0.0, 0.0, 0.0, 0.0, 0.0, 0.0, 0.0, 0.0, 1.6776148091471355E9, 0.0, 2023-02-28 12:06:49.147
80.0, 26944.33503679455, -4253.738135545032, 15418.210973526357, -2986.3942249291213, 15607.2843798738, 7547.759419412544, -187500.02235174447, -187500.02235174447, -0.17400000000000002, -0.76, -0.636, 192.0, 0.0, 0.0, 0.0, 0.0, 0.0, 0.0, 0.0, 0.0, 0.0, 1.677614809150174E9, 0.0, 2023-02-28 12:06:49.150
81.0, 26807.654119450348, -4253.358155889292, 14653.446036988025, -2978.079375991747, 15201.264941843147, 7216.797139262812, -187500.02235174447, -187500.02235174447, -0.17400000000000002, -0.76, -0.636, 192.0, 0.0, 0.0, 0.0, 0.0, 0.0, 0.0, 0.0, 0.0, 0.0, 1.6776148091530805E9, 0.0, 2023-02-28 12:06:49.153
82.0, 26790.666793664313, -4255.1462954457165, 14474.699136578934, -2981.8121173157833, 15099.117469682393, 7225.626078322659, -187500.02235174447, -187500.02235174447, -0.17400000000000002, -0.76, -0.636, 192.0, 0.0, 0.0, 0.0, 0.0, 0.0, 0.0, 0.0, 0.0, 0.0, 1.6776148091581407E9, 0.0, 2023-02-28 12:06:49.158
83.0, 26926.721862163766, -4253.291100655925, 15211.05500591457, -2989.702283108507, 15486.026166203757, 7561.237521319094, -187500.02235174447, -187500.02235174447, -0.17400000000000002, -0.76, -0.636, 192.0, 0.0, 0.0, 0.0, 0.0, 0.0, 0.0, 0.0, 0.0, 0.0, 1.6776148091621675E9, 0.0, 2023-02-28 12:06:49.162
84.0, 26961.322362580584, -4249.066620953872, 15491.055308706202, -2985.701320851007, 15639.448540144986, 7599.369597359848, -187500.02235174447, -187500.02235174447, -0.17400000000000002, -0.76, -0.636, 192.0, 0.0, 0.0, 0.0, 0.0, 0.0, 0.0, 0.0, 0.0, 0.0, 1.677614809166129E9, 0.0, 2023-02-28 12:06:49.166
85.0, 26844.51214605715, -4243.724554029054, 14781.901512372675, -2974.950131768004, 15270.220073487768, 7269.39079396615, -187500.02235174447, -187500.02235174447, -0.17400000000000002, -0.76, -0.636, 192.0, 0.0, 0.0, 0.0, 0.0, 0.0, 0.0, 0.0, 0.0, 0.0, 1.6776148091701436E9, 0.0, 2023-02-28 12:06:49.170
86.0, 26807.40825026134, -4240.617661549766, 14417.299856817706, -2974.6148556011744, 15075.268158348581, 7195.674740752547, -187500.02235174447, -187500.02235174447, -0.17400000000000002, -0.76, -0.636, 192.0, 0.0, 0.0, 0.0, 0.0, 0.0, 0.0, 0.0, 0.0, 0.0, 1.67761480917413E9, 0.0, 2023-02-28 12:06:49.174
87.0, 26924.307873762595, -4241.1764551611495, 15065.768666955075, -2982.862649305183, 15412.824203112628, 7515.528203907991, -187500.02235174447, -187500.02235174447, -0.17400000000000002, -0.76, -0.636, 192.0, 0.0, 0.0, 0.0, 0.0, 0.0, 0.0, 0.0, 0.0, 0.0, 1.6776148091781862E9, 0.0, 2023-02-28 12:06:49.178
88.0, 26975.403961587428, -4245.378583118747, 15528.561535902207, -2983.3767394276547, 15665.95770906898, 7640.27328971306, -187500.02235174447, -187500.02235174447, -0.176, -0.766, -0.632, 192.0, 250.0, 128.0, 232.0, 16.0, 236.0, 64.0, 0.0, 0.0, 0.0, 1.6776148091811414E9, 0.0, 2023-02-28 12:06:49.181
89.0, 26857.342047374495, -4243.188112162127, 14921.890487896264, -2974.212524200979, 15352.362734361022, 7332.936803452588, -187500.02235174447, -187500.02235174447, -0.176, -0.766, -0.632, 192.0, 0.0, 0.0, 0.0, 0.0, 0.0, 0.0, 0.0, 0.0, 0.0, 1.6776148091861527E9, 0.0, 2023-02-28 12:06:49.186
90.0, 26771.980735299676, -4245.624452307756, 14397.004472852288, -2975.4195184015657, 15068.406172800802, 7175.044080620299, -187500.02235174447, -187500.02235174447, -0.176, -0.766, -0.632, 192.0, 0.0, 0.0, 0.0, 0.0, 0.0, 0.0, 0.0, 0.0, 0.0, 1.677614809190114E9, 0.0, 2023-02-28 12:06:49.190
91.0, 26869.099064957987, -4250.69829829911, 14922.784557674475, -2986.6847976070403, 15336.94003068686, 7455.33495608985, -187500.02235174447, -187500.02235174447, -0.176, -0.766, -0.632, 192.0, 0.0, 0.0, 0.0, 0.0, 0.0, 0.0, 0.0, 0.0, 0.0, 1.677614809195213E9, 0.0, 2023-02-28 12:06:49.195
92.0, 26963.959868426307, -4249.826580265353, 15533.434216193464, -2989.434062175043, 15663.409610201075, 7658.869941099876, -187500.02235174447, -187500.02235174447, -0.176, -0.766, -0.632, 192.0, 0.0, 0.0, 0.0, 0.0, 0.0, 0.0, 0.0, 0.0, 0.0, 1.677614809200162E9, 0.0, 2023-02-28 12:06:49.200
93.0, 26880.83373079702, -4245.7585627744875, 15071.736582724641, -2980.471012648465, 15425.519993963242, 7394.292341982406, -187500.02235174447, -187500.02235174447, -0.176, -0.766, -0.632, 192.0, 0.0, 0.0, 0.0, 0.0, 0.0, 0.0, 0.0, 0.0, 0.0, 1.6776148092031646E9, 0.0, 2023-02-28 12:06:49.203
94.0, 26781.92726158229, -4245.535045329934, 14418.059816129187, -2977.721748080462, 15072.831818202952, 7161.767144413847, -187500.02235174447, -187500.02235174447, -0.176, -0.766, -0.632, 192.0, 0.0, 0.0, 0.0, 0.0, 0.0, 0.0, 0.0, 0.0, 0.0, 1.6776148092061703E9, 0.0, 2023-02-28 12:06:49.206
95.0, 26848.513108314648, -4250.31831864337, 14783.153210062172, -2986.9977220294145, 15253.92565177985, 7389.7772896024335, -187500.02235174447, -187500.02235174447, -0.176, -0.766, -0.632, 192.0, 0.0, 0.0, 0.0, 0.0, 0.0, 0.0, 0.0, 0.0, 0.0, 1.6776148092102015E9, 0.0, 2023-02-28 12:06:49.210
96.0, 26971.224185374285, -4247.546702330912, 15500.487744866341, -2990.1046145087025, 15637.213365699456, 7657.305318988004, -187500.02235174447, -187500.02235174447, -0.176, -0.766, -0.632, 192.0, 0.0, 0.0, 0.0, 0.0, 0.0, 0.0, 0.0, 0.0, 0.0, 1.6776148092132285E9, 0.0, 2023-02-28 12:06:49.213
97.0, 26917.8035161261, -4240.774123760953, 15212.86549721545, -2980.2251434594564, 15492.932855240448, 7454.642052011735, -187500.02235174447, -187500.02235174447, -0.176, -0.766, -0.632, 192.0, 0.0, 0.0, 0.0, 0.0, 0.0, 0.0, 0.0, 0.0, 0.0, 1.6776148092181685E9, 0.0, 2023-02-28 12:06:49.218
98.0, 26793.036078576577, -4240.282385382937, 14473.134514467063, -2975.2854079348335, 15098.46926909319, 7168.003281116878, -187500.02235174447, -187500.02235174447, -0.176, -0.766, -0.632, 192.0, 0.0, 0.0, 0.0, 0.0, 0.0, 0.0, 0.0, 0.0, 0.0, 1.6776148092223227E9, 0.0, 2023-02-28 12:06:49.222
99.0, 26831.101099383963, -4248.1054959422945, 14659.726877179966, -2984.7178440949733, 15188.4350405258, 7326.946535938566, -187500.02235174447, -187500.02235174447, -0.176, -0.762, -0.634, 192.0, 250.0, 128.0, 232.0, 48.0, 236.0, 48.0, 0.0, 0.0, 0.0, 1.677614809226396E9, 0.0, 2023-02-28 12:06:49.226
100.0, 26950.638228730946, -4253.246397167015, 15432.76195916676, -2991.691588365029, 15597.628426269106, 7633.478359398647, -187500.02235174447, -187500.02235174447, -0.176, -0.762, -0.634, 192.0, 0.0, 0.0, 0.0, 0.0, 0.0, 0.0, 0.0, 0.0, 0.0, 1.6776148092311835E9, 0.0, 2023-02-28 12:06:49.231
101.0, 26914.69662364681, -4252.3299756443475, 15341.298620855645, -2985.075472006258, 15559.116370572612, 7507.570982881902, -187500.02235174447, -187500.02235174447, -0.176, -0.762, -0.634, 192.0, 0.0, 0.0, 0.0, 0.0, 0.0, 0.0, 0.0, 0.0, 0.0, 1.677614809234208E9, 0.0, 2023-02-28 12:06:49.234
102.0, 26787.761066885123, -4250.452429110102, 14563.569672533236, -2977.5205823803644, 15148.514824928621, 7192.746662228902, -187500.02235174447, -187500.02235174447, -0.176, -0.762, -0.634, 192.0, 0.0, 0.0, 0.0, 0.0, 0.0, 0.0, 0.0, 0.0, 0.0, 1.6776148092372515E9, 0.0, 2023-02-28 12:06:49.237
103.0, 26815.052546865052, -4248.418420364669, 14550.06921888223, -2981.633303360141, 15136.333124200479, 7276.565703936304, -187500.02235174447, -187500.02235174447, -0.176, -0.762, -0.634, 192.0, 0.0, 0.0, 0.0, 0.0, 0.0, 0.0, 0.0, 0.0, 0.0, 1.6776148092422612E9, 0.0, 2023-02-28 12:06:49.242
104.0, 26945.720844950778, -4251.234740166037, 15323.998370647238, -2989.2999517083113, 15544.274812254289, 7608.399702119792, -187500.02235174447, -187500.02235174447, -0.176, -0.762, -0.634, 192.0, 0.0, 0.0, 0.0, 0.0, 0.0, 0.0, 0.0, 0.0, 0.0, 1.677614809246199E9, 0.0, 2023-02-28 12:06:49.246
105.0, 26933.00270235571, -4253.738135545032, 15436.539403979708, -2984.539030139331, 15610.65949328655, 7567.317195810938, -187500.02235174447, -187500.02235174447, -0.176, -0.762, -0.634, 192.0, 0.0, 0.0, 0.0, 0.0, 0.0, 0.0, 0.0, 0.0, 0.0, 1.6776148092502851E9, 0.0, 2023-02-28 12:06:49.250
106.0, 26803.854322892945, -4251.838237266331, 14673.786124442355, -2976.402995157599, 15213.15606989337, 7226.028409722854, -187500.02235174447, -187500.02235174447, -0.176, -0.762, -0.634, 192.0, 0.0, 0.0, 0.0, 0.0, 0.0, 0.0, 0.0, 0.0, 0.0, 1.6776148092542996E9, 0.0, 2023-02-28 12:06:49.254
107.0, 26800.345099013462, -4250.228911665548, 14465.110238207608, -2979.3981289146104, 15097.731661526164, 7219.591107319726, -187500.02235174447, -187500.02235174447, -0.176, -0.762, -0.634, 192.0, 0.0, 0.0, 0.0, 0.0, 0.0, 0.0, 0.0, 0.0, 0.0, 1.6776148092583292E9, 0.0, 2023-02-28 12:06:49.258
108.0, 26918.295254504115, -4256.241530924026, 15191.653691727364, -2987.444756918521, 15478.560683555686, 7557.97416662862, -187500.02235174447, -187500.02235174447, -0.176, -0.762, -0.634, 192.0, 0.0, 0.0, 0.0, 0.0, 0.0, 0.0, 0.0, 0.0, 0.0, 1.6776148092623277E9, 0.0, 2023-02-28 12:06:49.262
109.0, 26942.6586559604, -4260.354251903803, 15502.901733267516, -2985.4554516619983, 15652.121979251146, 7609.517289342558, -187500.02235174447, -187500.02235174447, -0.17400000000000002, -0.754, -0.636, 192.0, 250.0, 144.0, 232.0, 112.0, 236.0, 32.0, 0.0, 0.0, 0.0, 1.6776148092652683E9, 0.0, 2023-02-28 12:06:49.265
110.0, 26820.752241701157, -4259.549589103412, 14805.393195795203, -2977.565285869275, 15291.74480339823, 7275.693985902547, -187500.02235174447, -187500.02235174447, -0.17400000000000002, -0.754, -0.636, 192.0, 0.0, 0.0, 0.0, 0.0, 0.0, 0.0, 0.0, 0.0, 0.0, 1.6776148092692053E9, 0.0, 2023-02-28 12:06:49.269
111.0, 26780.9214330818, -4259.840161781331, 14412.270714315262, -2980.0686812482695, 15078.330347338957, 7185.482345280928, -187500.02235174447, -187500.02235174447, -0.17400000000000002, -0.754, -0.636, 192.0, 0.0, 0.0, 0.0, 0.0, 0.0, 0.0, 0.0, 0.0, 0.0, 1.6776148092742736E9, 0.0, 2023-02-28 12:06:49.274
112.0, 26891.27199545765, -4265.092821728328, 15047.842567901918, -2990.4845941644426, 15411.706615889861, 7500.977218267587, -187500.02235174447, -187500.02235174447, -0.17400000000000002, -0.754, -0.636, 192.0, 0.0, 0.0, 0.0, 0.0, 0.0, 0.0, 0.0, 0.0, 0.0, 1.6776148092782629E9, 0.0, 2023-02-28 12:06:49.278
113.0, 26947.710150207302, -4266.992720007029, 15538.195137762445, -2992.0939197652247, 15677.558264441284, 7639.55803389049, -187500.02235174447, -187500.02235174447, -0.17400000000000002, -0.754, -0.636, 192.0, 0.0, 0.0, 0.0, 0.0, 0.0, 0.0, 0.0, 0.0, 0.0, 1.6776148092822247E9, 0.0, 2023-02-28 12:06:49.282
114.0, 26843.305151856563, -4261.203618193104, 14950.992459177072, -2982.147393482613, 15372.903987515449, 7335.4178470871275, -187500.02235174447, -187500.02235174447, -0.17400000000000002, -0.754, -0.636, 192.0, 0.0, 0.0, 0.0, 0.0, 0.0, 0.0, 0.0, 0.0, 0.0, 1.6776148092862525E9, 0.0, 2023-02-28 12:06:49.286
115.0, 26773.791226600555, -4256.777972790954, 14400.692510687413, -2980.1357364816354, 15081.4595915627, 7163.51058048136, -187500.02235174447, -187500.02235174447, -0.17400000000000002, -0.754, -0.636, 192.0, 0.0, 0.0, 0.0, 0.0, 0.0, 0.0, 0.0, 0.0, 0.0, 1.6776148092904007E9, 0.0, 2023-02-28 12:06:49.290
116.0, 26874.396428393895, -4256.152123946205, 14904.813755132409, -2988.11530925218, 15343.869071468005, 7436.961822147588, -187500.02235174447, -187500.02235174447, -0.17400000000000002, -0.754, -0.636, 192.0, 0.0, 0.0, 0.0, 0.0, 0.0, 0.0, 0.0, 0.0, 0.0, 1.677614809293296E9, 0.0, 2023-02-28 12:06:49.293
117.0, 26967.513795794704, -4256.085068712839, 15538.575117418184, -2991.468070920476, 15682.699165666005, 7648.565786905979, -187500.02235174447, -187500.02235174447, -0.17400000000000002, -0.754, -0.636, 192.0, 0.0, 0.0, 0.0, 0.0, 0.0, 0.0, 0.0, 0.0, 0.0, 1.6776148092972822E9, 0.0, 2023-02-28 12:06:49.297
118.0, 26884.097085487498, -4251.45825761059, 15101.643216805842, -2983.3990911721103, 15454.800779199693, 7394.828783849333, -187500.02235174447, -187500.02235174447, -0.17400000000000002, -0.754, -0.636, 192.0, 0.0, 0.0, 0.0, 0.0, 0.0, 0.0, 0.0, 0.0, 0.0, 1.6776148093023531E9, 0.0, 2023-02-28 12:06:49.302
119.0, 26778.976831314187, -4251.547664588412, 14429.52626103476, -2980.694530093018, 15093.730699268664, 7157.60971994516, -187500.02235174447, -187500.02235174447, -0.17200000000000001, -0.754, -0.64, 192.0, 250.0, 160.0, 232.0, 112.0, 236.0, 0.0, 0.0, 0.0, 0.0, 1.6776148093062513E9, 0.0, 2023-02-28 12:06:49.306
120.0, 26852.871698483432, -4253.380507633747, 14768.35635523276, -2988.5846958857414, 15269.527169409654, 7374.332234183817, -187500.02235174447, -187500.02235174447, -0.17200000000000001, -0.754, -0.64, 192.0, 0.0, 0.0, 0.0, 0.0, 0.0, 0.0, 0.0, 0.0, 0.0, 1.67761480931035E9, 0.0, 2023-02-28 12:06:49.310
121.0, 26963.892813192942, -4256.576807090856, 15499.280750665755, -2992.7644720988837, 15662.716706122961, 7650.242167740127, -187500.02235174447, -187500.02235174447, -0.17200000000000001, -0.754, -0.64, 192.0, 0.0, 0.0, 0.0, 0.0, 0.0, 0.0, 0.0, 0.0, 0.0, 1.6776148093143232E9, 0.0, 2023-02-28 12:06:49.314
122.0, 26891.6966786023, -4259.549589103412, 15239.978163239737, -2985.9024865511046, 15528.181556246467, 7462.308700359906, -187500.02235174447, -187500.02235174447, -0.17200000000000001, -0.754, -0.64, 192.0, 0.0, 0.0, 0.0, 0.0, 0.0, 0.0, 0.0, 0.0, 0.0, 1.677614809318294E9, 0.0, 2023-02-28 12:06:49.318
123.0, 26771.176072499286, -4258.990795492029, 14487.573741385191, -2980.940399282026, 15127.772406074097, 7173.121830597142, -187500.02235174447, -187500.02235174447, -0.17200000000000001, -0.754, -0.64, 192.0, 0.0, 0.0, 0.0, 0.0, 0.0, 0.0, 0.0, 0.0, 0.0, 1.6776148093213444E9, 0.0, 2023-02-28 12:06:49.321
124.0, 26832.06222439554, -4257.560283846889, 14641.599612426713, -2987.8917918076268, 15201.86843894344, 7324.510195792937, -187500.02235174447, -187500.02235174447, -0.17200000000000001, -0.754, -0.64, 192.0, 0.0, 0.0, 0.0, 0.0, 0.0, 0.0, 0.0, 0.0, 0.0, 1.677614809325344E9, 0.0, 2023-02-28 12:06:49.325
125.0, 26964.876289948978, -4258.476705369557, 15419.976761338326, -2995.223163988968, 15615.822746255726, 7637.8369495674315, -187500.02235174447, -187500.02235174447, -0.17200000000000001, -0.754, -0.64, 192.0, 0.0, 0.0, 0.0, 0.0, 0.0, 0.0, 0.0, 0.0, 0.0, 1.6776148093303435E9, 0.0, 2023-02-28 12:06:49.330
126.0, 26919.412841726884, -4260.153086203705, 15359.671754797908, -2988.8752685636605, 15587.41367905303, 7525.96646856862, -187500.02235174447, -187500.02235174447, -0.17200000000000001, -0.754, -0.64, 192.0, 0.0, 0.0, 0.0, 0.0, 0.0, 0.0, 0.0, 0.0, 0.0, 1.6776148093342693E9, 0.0, 2023-02-28 12:06:49.334
127.0, 26788.275157007596, -4260.108382714794, 14578.992376207398, -2982.147393482613, 15175.247511297168, 7196.099423897198, -187500.02235174447, -187500.02235174447, -0.17200000000000001, -0.754, -0.64, 192.0, 0.0, 0.0, 0.0, 0.0, 0.0, 0.0, 0.0, 0.0, 0.0, 1.6776148093383224E9, 0.0, 2023-02-28 12:06:49.338
128.0, 26809.084631095488, -4258.387298391735, 14538.44631176547, -2986.6847976070403, 15146.65963013883, 7264.182837508063, -187500.02235174447, -187500.02235174447, -0.17200000000000001, -0.754, -0.64, 192.0, 0.0, 0.0, 0.0, 0.0, 0.0, 0.0, 0.0, 0.0, 0.0, 1.6776148093413272E9, 0.0, 2023-02-28 12:06:49.341
129.0, 26943.642132716435, -4255.570978590367, 15311.101414096525, -2992.7644720988837, 15550.957983846425, 7602.655303794779, -187500.02235174447, -187500.02235174447, -0.17400000000000002, -0.756, -0.64, 192.0, 250.0, 144.0, 232.0, 96.0, 236.0, 0.0, 0.0, 0.0, 0.0, 1.677614809345373E9, 0.0, 2023-02-28 12:06:49.345
130.0, 26945.206754828305, -4253.112286700283, 15454.577261755141, -2986.8412598182276, 15639.135615722611, 7577.062556393452, -187500.02235174447, -187500.02235174447, -0.17400000000000002, -0.756, -0.64, 192.0, 0.0, 0.0, 0.0, 0.0, 0.0, 0.0, 0.0, 0.0, 0.0, 1.6776148093493176E9, 0.0, 2023-02-28 12:06:49.349
131.0, 26821.467497523725, -4249.2230831650595, 14697.478973564981, -2978.369948669666, 15242.459206874277, 7241.115837230187, -187500.02235174447, -187500.02235174447, -0.17400000000000002, -0.756, -0.64, 192.0, 0.0, 0.0, 0.0, 0.0, 0.0, 0.0, 0.0, 0.0, 0.0, 1.6776148093533523E9, 0.0, 2023-02-28 12:06:49.353
132.0, 26801.999128103154, -4251.748830288509, 14459.8128747717, -2982.817945816272, 15104.236019162658, 7224.62024982217, -187500.02235174447, -187500.02235174447, -0.17400000000000002, -0.756, -0.64, 192.0, 0.0, 0.0, 0.0, 0.0, 0.0, 0.0, 0.0, 0.0, 0.0, 1.6776148093583496E9, 0.0, 2023-02-28 12:06:49.358
133.0, 26926.543048208125, -4255.615682079278, 15177.594444464976, -2992.250381976412, 15480.102953923102, 7557.30361429496, -187500.02235174447, -187500.02235174447, -0.17400000000000002, -0.756, -0.64, 192.0, 0.0, 0.0, 0.0, 0.0, 0.0, 0.0, 0.0, 0.0, 0.0, 1.6776148093633623E9, 0.0, 2023-02-28 12:06:49.363
134.0, 26963.7139992373, -4257.873208269263, 15518.570306130685, -2990.350483697711, 15671.635052160627, 7617.720379557655, -187500.02235174447, -187500.02235174447, -0.17400000000000002, -0.756, -0.64, 192.0, 0.0, 0.0, 0.0, 0.0, 0.0, 0.0, 0.0, 0.0, 0.0, 1.6776148093673484E9, 0.0, 2023-02-28 12:06:49.367
135.0, 26839.997093677175, -4259.169609447671, 14831.723550763554, -2982.437966160532, 15313.046015864136, 7290.312026776318, -187500.02235174447, -187500.02235174447, -0.17400000000000002, -0.756, -0.64, 192.0, 0.0, 0.0, 0.0, 0.0, 0.0, 0.0, 0.0, 0.0, 0.0, 1.6776148093703225E9, 0.0, 2023-02-28 12:06:49.370
136.0, 26777.501616180136, -4263.707013572099, 14412.695397459913, -2983.9355330390376, 15087.673376521276, 7190.287970338818, -187500.02235174447, -187500.02235174447, -0.17400000000000002, -0.756, -0.64, 192.0, 0.0, 0.0, 0.0, 0.0, 0.0, 0.0, 0.0, 0.0, 0.0, 1.6776148093733275E9, 0.0, 2023-02-28 12:06:49.373
137.0, 26883.806512809577, -4268.5573421189, 15032.129291549838, -2993.59148664373, 15409.069110044136, 7501.267790945505, -187500.02235174447, -187500.02235174447, -0.17400000000000002, -0.756, -0.64, 192.0, 0.0, 0.0, 0.0, 0.0, 0.0, 0.0, 0.0, 0.0, 0.0, 1.6776148093773775E9, 0.0, 2023-02-28 12:06:49.377
138.0, 26957.120234622984, -4268.914970030185, 15545.83943436616, -2993.4797279214536, 15682.877979621648, 7649.906891573298, -187500.02235174447, -187500.02235174447, -0.17400000000000002, -0.756, -0.64, 192.0, 0.0, 0.0, 0.0, 0.0, 0.0, 0.0, 0.0, 0.0, 0.0, 1.677614809381412E9, 0.0, 2023-02-28 12:06:49.381
139.0, 26849.384826348407, -4267.372699662769, 14976.719317045132, -2984.3825679281435, 15384.795115565672, 7350.102943194264, -187500.02235174447, -187500.02235174447, -0.17, -0.76, -0.636, 192.0, 250.0, 176.0, 232.0, 64.0, 236.0, 32.0, 0.0, 0.0, 0.0, 1.6776148093854456E9, 0.0, 2023-02-28 12:06:49.385
140.0, 26761.162490983308, -4271.463068898091, 14404.782879922734, -2984.6731406060626, 15074.105867636905, 7163.801153159279, -187500.02235174447, -187500.02235174447, -0.17, -0.76, -0.636, 192.0, 0.0, 0.0, 0.0, 0.0, 0.0, 0.0, 0.0, 0.0, 0.0, 1.6776148093903365E9, 0.0, 2023-02-28 12:06:49.390
141.0, 26858.146710174886, -4275.687548600144, 14886.351214212325, -2994.1726319995682, 15319.460966522809, 7424.824824908355, -187500.02235174447, -187500.02235174447, -0.17, -0.76, -0.636, 192.0, 0.0, 0.0, 0.0, 0.0, 0.0, 0.0, 0.0, 0.0, 0.0, 1.677614809394361E9, 0.0, 2023-02-28 12:06:49.394
142.0, 26959.78009221317, -4276.916894545186, 15537.748102873338, -2997.9277250680598, 15665.287156735321, 7648.722249117166, -187500.02235174447, -187500.02235174447, -0.17, -0.76, -0.636, 192.0, 0.0, 0.0, 0.0, 0.0, 0.0, 0.0, 0.0, 0.0, 0.0, 1.677614809397342E9, 0.0, 2023-02-28 12:06:49.397
143.0, 26868.69673355779, -4276.022824766973, 15124.173775216792, -2989.8587453196938, 15450.375133797543, 7401.914286841666, -187500.02235174447, -187500.02235174447, -0.17, -0.76, -0.636, 192.0, 0.0, 0.0, 0.0, 0.0, 0.0, 0.0, 0.0, 0.0, 0.0, 1.677614809401377E9, 0.0, 2023-02-28 12:06:49.401
144.0, 26764.269383462597, -4272.066565998383, 14436.14237739353, -2985.9024865511046, 15082.21955087418, 7155.598062944182, -187500.02235174447, -187500.02235174447, -0.17, -0.76, -0.636, 192.0, 0.0, 0.0, 0.0, 0.0, 0.0, 0.0, 0.0, 0.0, 0.0, 1.6776148094053683E9, 0.0, 2023-02-28 12:06:49.405
145.0, 26834.74443373018, -4273.005339265506, 14748.932689301097, -2994.150280255113, 15240.000514984193, 7362.508161366959, -187500.02235174447, -187500.02235174447, -0.17, -0.76, -0.636, 192.0, 0.0, 0.0, 0.0, 0.0, 0.0, 0.0, 0.0, 0.0, 0.0, 1.6776148094094088E9, 0.0, 2023-02-28 12:06:49.409
146.0, 26949.587696741546, -4275.866362555786, 15492.865800007083, -2999.984085557948, 15640.05203724528, 7644.27425197056, -187500.02235174447, -187500.02235174447, -0.17, -0.76, -0.636, 192.0, 0.0, 0.0, 0.0, 0.0, 0.0, 0.0, 0.0, 0.0, 0.0, 1.6776148094144251E9, 0.0, 2023-02-28 12:06:49.414
147.0, 26899.385678694925, -4271.217199709082, 15265.749724596708, -2991.2222017314675, 15529.992047547346, 7467.1366771622515, -187500.02235174447, -187500.02235174447, -0.17, -0.76, -0.636, 192.0, 0.0, 0.0, 0.0, 0.0, 0.0, 0.0, 0.0, 0.0, 0.0, 1.6776148094184082E9, 0.0, 2023-02-28 12:06:49.418
148.0, 26773.1206742669, -4268.646749096722, 14504.762232871322, -2985.8801348066495, 15126.94539152925, 7172.2948160522965, -187500.02235174447, -187500.02235174447, -0.17, -0.76, -0.636, 192.0, 0.0, 0.0, 0.0, 0.0, 0.0, 0.0, 0.0, 0.0, 0.0, 1.6776148094225392E9, 0.0, 2023-02-28 12:06:49.422
149.0, 26814.739622442678, -4270.4125369086905, 14630.021408798864, -2993.2562104769004, 15182.735345689696, 7307.813442684823, -187500.02235174447, -187500.02235174447, -0.164, -0.76, -0.636, 192.0, 250.0, 224.0, 232.0, 64.0, 236.0, 32.0, 0.0, 0.0, 0.0, 1.6776148094255152E9, 0.0, 2023-02-28 12:06:49.425
150.0, 26947.508984507203, -4273.586484621344, 15409.896124588982, -3000.0287890468585, 15597.740184991382, 7627.577498862446, -187500.02235174447, -187500.02235174447, -0.164, -0.76, -0.636, 192.0, 0.0, 0.0, 0.0, 0.0, 0.0, 0.0, 0.0, 0.0, 0.0, 1.6776148094304016E9, 0.0, 2023-02-28 12:06:49.430
151.0, 26926.05130983011, -4271.954807276107, 15382.068202742124, -2993.8373558327385, 15592.219304110922, 7526.234689502084, -187500.02235174447, -187500.02235174447, -0.164, -0.76, -0.636, 192.0, 0.0, 0.0, 0.0, 0.0, 0.0, 0.0, 0.0, 0.0, 0.0, 1.6776148094354498E9, 0.0, 2023-02-28 12:06:49.435
152.0, 26783.849511605444, -4273.899409043719, 14602.595818352202, -2987.690626107529, 15178.779086921108, 7196.9487901864995, -187500.02235174447, -187500.02235174447, -0.164, -0.76, -0.636, 192.0, 0.0, 0.0, 0.0, 0.0, 0.0, 0.0, 0.0, 0.0, 0.0, 1.677614809438455E9, 0.0, 2023-02-28 12:06:49.438
153.0, 26790.15270354184, -4277.006301523006, 14529.147986072063, -2993.792652343828, 15128.286496196568, 7250.436514668049, -187500.02235174447, -187500.02235174447, -0.164, -0.76, -0.636, 192.0, 0.0, 0.0, 0.0, 0.0, 0.0, 0.0, 0.0, 0.0, 0.0, 1.6776148094415035E9, 0.0, 2023-02-28 12:06:49.441
154.0, 26925.827792385557, -4279.599103879822, 15297.131573811957, -3003.0015710594143, 15527.376893446077, 7586.584399531413, -187500.02235174447, -187500.02235174447, -0.164, -0.76, -0.636, 192.0, 0.0, 0.0, 0.0, 0.0, 0.0, 0.0, 0.0, 0.0, 0.0, 1.6776148094464605E9, 0.0, 2023-02-28 12:06:49.446
155.0, 26939.41765301438, -4276.603970122811, 15475.96788119887, -2998.464166934987, 15625.545755093784, 7576.7272802266225, -187500.02235174447, -187500.02235174447, -0.164, -0.76, -0.636, 192.0, 0.0, 0.0, 0.0, 0.0, 0.0, 0.0, 0.0, 0.0, 0.0, 1.677614809450414E9, 0.0, 2023-02-28 12:06:49.450
156.0, 26807.63176770589, -4273.027691009962, 14726.53624135688, -2989.724634852962, 15231.171575924347, 7238.3889244066395, -187500.02235174447, -187500.02235174447, -0.164, -0.76, -0.636, 192.0, 0.0, 0.0, 0.0, 0.0, 0.0, 0.0, 0.0, 0.0, 0.0, 1.6776148094534328E9, 0.0, 2023-02-28 12:06:49.453
157.0, 26785.414133717317, -4271.552475875911, 14455.744857280835, -2991.311608709289, 15085.862885220396, 7207.3423513582175, -187500.02235174447, -187500.02235174447, -0.164, -0.76, -0.636, 192.0, 0.0, 0.0, 0.0, 0.0, 0.0, 0.0, 0.0, 0.0, 0.0, 1.6776148094575336E9, 0.0, 2023-02-28 12:06:49.457
158.0, 26906.001795053697, -4272.670063098677, 15160.4283047233, -2998.3971117016213, 15454.845482688605, 7542.35029725436, -187500.02235174447, -187500.02235174447, -0.164, -0.76, -0.636, 192.0, 0.0, 0.0, 0.0, 0.0, 0.0, 0.0, 0.0, 0.0, 0.0, 1.6776148094614823E9, 0.0, 2023-02-28 12:06:49.461
159.0, 26948.403054285416, -4273.452374154613, 15533.031884793269, -2996.7207308674733, 15658.313412465264, 7624.269440683061, -187500.02235174447, -187500.02235174447, -0.164, -0.764, -0.636, 192.0, 250.0, 224.0, 232.0, 32.0, 236.0, 32.0, 0.0, 0.0, 0.0, 1.6776148094654756E9, 0.0, 2023-02-28 12:06:49.465
160.0, 26827.748337715668, -4271.865400298286, 14864.692373835132, -2987.4224051740653, 15308.530963484165, 7299.699759447546, -187500.02235174447, -187500.02235174447, -0.164, -0.764, -0.636, 192.0, 0.0, 0.0, 0.0, 0.0, 0.0, 0.0, 0.0, 0.0, 0.0, 1.6776148094694672E9, 0.0, 2023-02-28 12:06:49.469
161.0, 26762.995334028645, -4276.134583489249, 14419.490327774327, -2989.411710430588, 15066.103943121905, 7180.22968533393, -187500.02235174447, -187500.02235174447, -0.164, -0.764, -0.636, 192.0, 0.0, 0.0, 0.0, 0.0, 0.0, 0.0, 0.0, 0.0, 0.0, 1.6776148094734373E9, 0.0, 2023-02-28 12:06:49.473
162.0, 26873.5917655935, -4279.621455624278, 15018.40532045428, -2999.849975091216, 15380.816505052628, 7481.9335319916645, -187500.02235174447, -187500.02235174447, -0.164, -0.764, -0.636, 192.0, 0.0, 0.0, 0.0, 0.0, 0.0, 0.0, 0.0, 0.0, 0.0, 1.677614809478514E9, 0.0, 2023-02-28 12:06:49.478
163.0, 26964.317496337593, -4275.978121278063, 15558.98226010588, -3000.475823935965, 15676.753601640894, 7647.537606661035, -187500.02235174447, -187500.02235174447, -0.164, -0.764, -0.636, 192.0, 0.0, 0.0, 0.0, 0.0, 0.0, 0.0, 0.0, 0.0, 0.0, 1.67761480948149E9, 0.0, 2023-02-28 12:06:49.481
164.0, 26860.381884620416, -4273.2288567100595, 15010.649265128288, -2990.372835442166, 15395.099269759568, 7358.55190259837, -187500.02235174447, -187500.02235174447, -0.164, -0.764, -0.636, 192.0, 0.0, 0.0, 0.0, 0.0, 0.0, 0.0, 0.0, 0.0, 0.0, 1.6776148094854643E9, 0.0, 2023-02-28 12:06:49.485
165.0, 26761.229546216673, -4277.967426534585, 14413.388301538027, -2989.724634852962, 15076.98924267164, 7161.811847902757, -187500.02235174447, -187500.02235174447, -0.164, -0.764, -0.636, 192.0, 0.0, 0.0, 0.0, 0.0, 0.0, 0.0, 0.0, 0.0, 0.0, 1.6776148094904687E9, 0.0, 2023-02-28 12:06:49.490
166.0, 26856.827957252022, -4279.777917835465, 14869.699164593121, -2998.2853529793447, 15311.88372515246, 7421.9414498736205, -187500.02235174447, -187500.02235174447, -0.164, -0.764, -0.636, 192.0, 0.0, 0.0, 0.0, 0.0, 0.0, 0.0, 0.0, 0.0, 0.0, 1.6776148094955566E9, 0.0, 2023-02-28 12:06:49.495
167.0, 26967.53614753916, -4278.772089334976, 15540.430312207976, -3000.9228588250708, 15669.645746904105, 7659.518141689079, -187500.02235174447, -187500.02235174447, -0.164, -0.764, -0.636, 192.0, 0.0, 0.0, 0.0, 0.0, 0.0, 0.0, 0.0, 0.0, 0.0, 1.677614809498494E9, 0.0, 2023-02-28 12:06:49.498
168.0, 26875.22344293874, -4278.995606779528, 15156.136769787881, -2992.3844924431437, 15467.29540435021, 7422.7014091851015, -187500.02235174447, -187500.02235174447, -0.164, -0.764, -0.636, 192.0, 0.0, 0.0, 0.0, 0.0, 0.0, 0.0, 0.0, 0.0, 0.0, 1.6776148095025065E9, 0.0, 2023-02-28 12:06:49.502
169.0, 26757.452101403727, -4279.397938179724, 14450.04516244473, -2988.785861585839, 15087.963949199195, 7164.248188048386, -187500.02235174447, -187500.02235174447, -0.17400000000000002, -0.762, -0.628, 192.0, 250.0, 144.0, 232.0, 48.0, 236.0, 96.0, 0.0, 0.0, 0.0, 1.6776148095065136E9, 0.0, 2023-02-28 12:06:49.506
170.0, 26827.0330818931, -4278.928551546162, 14734.314648427326, -2996.4078064450987, 15230.232802657225, 7362.463457878049, -187500.02235174447, -187500.02235174447, -0.17400000000000002, -0.762, -0.628, 192.0, 0.0, 0.0, 0.0, 0.0, 0.0, 0.0, 0.0, 0.0, 0.0, 1.6776148095095444E9, 0.0, 2023-02-28 12:06:49.509
171.0, 26963.42342655938, -4277.274522456471, 15489.40127961651, -3001.347541969722, 15628.362074895154, 7654.42194395327, -187500.02235174447, -187500.02235174447, -0.17400000000000002, -0.762, -0.628, 192.0, 0.0, 0.0, 0.0, 0.0, 0.0, 0.0, 0.0, 0.0, 0.0, 1.6776148095135884E9, 0.0, 2023-02-28 12:06:49.513
172.0, 26912.304986990093, -4273.564132876889, 15292.571817943075, -2992.5856581432413, 15529.969695802893, 7487.521468105491, -187500.02235174447, -187500.02235174447, -0.17400000000000002, -0.762, -0.628, 192.0, 0.0, 0.0, 0.0, 0.0, 0.0, 0.0, 0.0, 0.0, 0.0, 1.6776148095175312E9, 0.0, 2023-02-28 12:06:49.517
173.0, 26782.620165660403, -4272.2900834429365, 14522.174241802008, -2986.461280162487, 15121.648028093343, 7182.218990590452, -187500.02235174447, -187500.02235174447, -0.17400000000000002, -0.762, -0.628, 192.0, 0.0, 0.0, 0.0, 0.0, 0.0, 0.0, 0.0, 0.0, 0.0, 1.6776148095215087E9, 0.0, 2023-02-28 12:06:49.521
174.0, 26833.73860522969, -4267.484458385045, 14615.291609202815, -2991.40101568711, 15162.507016957643, 7305.734730450479, -187500.02235174447, -187500.02235174447, -0.17400000000000002, -0.762, -0.628, 192.0, 0.0, 0.0, 0.0, 0.0, 0.0, 0.0, 0.0, 0.0, 0.0, 1.677614809525616E9, 0.0, 2023-02-28 12:06:49.525
175.0, 26965.77035972719, -4264.690490328132, 15397.915589560938, -2997.190117501035, 15577.601263237151, 7631.980792520141, -187500.02235174447, -187500.02235174447, -0.17400000000000002, -0.762, -0.628, 192.0, 0.0, 0.0, 0.0, 0.0, 0.0, 0.0, 0.0, 0.0, 0.0, 1.677614809529564E9, 0.0, 2023-02-28 12:06:49.529
176.0, 26942.301028049118, -4261.047155981917, 15401.469516929332, -2990.1269662531577, 15588.46421104243, 7550.821608402921, -187500.02235174447, -187500.02235174447, -0.17400000000000002, -0.762, -0.628, 192.0, 0.0, 0.0, 0.0, 0.0, 0.0, 0.0, 0.0, 0.0, 0.0, 1.6776148095345595E9, 0.0, 2023-02-28 12:06:49.534
177.0, 26805.17307581581, -4259.773106547965, 14619.113757504674, -2981.834469060239, 15177.303871787057, 7220.529880586849, -187500.02235174447, -187500.02235174447, -0.17400000000000002, -0.762, -0.628, 192.0, 0.0, 0.0, 0.0, 0.0, 0.0, 0.0, 0.0, 0.0, 0.0, 1.6776148095375147E9, 0.0, 2023-02-28 12:06:49.537
178.0, 26810.381032273894, -4260.287196670437, 14512.942971341965, -2986.8636115626828, 15112.103833210926, 7263.266415985396, -187500.02235174447, -187500.02235174447, -0.17400000000000002, -0.762, -0.628, 192.0, 0.0, 0.0, 0.0, 0.0, 0.0, 0.0, 0.0, 0.0, 0.0, 1.6776148095415456E9, 0.0, 2023-02-28 12:06:49.541
179.0, 26951.37583629797, -4260.488362370535, 15273.863407833984, -2995.2008122445122, 15511.283637438255, 7603.012931706064, -187500.02235174447, -187500.02235174447, -0.168, -0.762, -0.628, 192.0, 250.0, 192.0, 232.0, 48.0, 236.0, 96.0, 0.0, 0.0, 0.0, 1.6776148095456257E9, 0.0, 2023-02-28 12:06:49.545
180.0, 26974.129912153472, -4260.5554176039, 15484.77446851426, -2991.758643598395, 15628.987923739902, 7606.835080007921, -187500.02235174447, -187500.02235174447, -0.168, -0.762, -0.628, 192.0, 0.0, 0.0, 0.0, 0.0, 0.0, 0.0, 0.0, 0.0, 0.0, 1.677614809549518E9, 0.0, 2023-02-28 12:06:49.549
181.0, 26861.45476835427, -4263.215275194082, 14745.848148566265, -2984.0919952502245, 15244.135587708424, 7265.5686456642925, -187500.02235174447, -187500.02235174447, -0.168, -0.762, -0.628, 192.0, 0.0, 0.0, 0.0, 0.0, 0.0, 0.0, 0.0, 0.0, 0.0, 1.6776148095535376E9, 0.0, 2023-02-28 12:06:49.553
182.0, 26859.46546309775, -4263.707013572099, 14445.86538623159, -2986.818908073772, 15080.833742717952, 7215.56779331777, -187500.02235174447, -187500.02235174447, -0.168, -0.762, -0.628, 192.0, 0.0, 0.0, 0.0, 0.0, 0.0, 0.0, 0.0, 0.0, 0.0, 1.677614809558627E9, 0.0, 2023-02-28 12:06:49.558
183.0, 26975.56042379861, -4266.858609540297, 15134.880260810884, -2995.6701988780737, 15441.456787759877, 7542.01502108753, -187500.02235174447, -187500.02235174447, -0.168, -0.762, -0.628, 192.0, 0.0, 0.0, 0.0, 0.0, 0.0, 0.0, 0.0, 0.0, 0.0, 1.6776148095616803E9, 0.0, 2023-02-28 12:06:49.561
184.0, 27014.161886472928, -4269.116135730283, 15537.703399384429, -2994.5526116553083, 15659.743924110404, 7631.958440775686, -187500.02235174447, -187500.02235174447, -0.168, -0.762, -0.628, 192.0, 0.0, 0.0, 0.0, 0.0, 0.0, 0.0, 0.0, 0.0, 0.0, 1.6776148095646656E9, 0.0, 2023-02-28 12:06:49.564
185.0, 26920.619835927468, -4262.678833327154, 14882.193789743638, -2982.4156144160766, 15319.79624268964, 7314.854242188245, -187500.02235174447, -187500.02235174447, -0.168, -0.762, -0.628, 192.0, 0.0, 0.0, 0.0, 0.0, 0.0, 0.0, 0.0, 0.0, 0.0, 1.6776148095696688E9, 0.0, 2023-02-28 12:06:49.569
186.0, 26813.085593352986, -4258.923740258663, 14407.263923557273, -2980.6498266041076, 15063.578195998454, 7188.18690636002, -187500.02235174447, -187500.02235174447, -0.168, -0.762, -0.628, 192.0, 0.0, 0.0, 0.0, 0.0, 0.0, 0.0, 0.0, 0.0, 0.0, 1.6776148095737665E9, 0.0, 2023-02-28 12:06:49.573
187.0, 26898.491608916716, -4249.64776630971, 14981.34612814738, -2985.187230728535, 15366.131408945492, 7488.393186139248, -187500.02235174447, -187500.02235174447, -0.168, -0.762, -0.628, 192.0, 0.0, 0.0, 0.0, 0.0, 0.0, 0.0, 0.0, 0.0, 0.0, 1.6776148095776715E9, 0.0, 2023-02-28 12:06:49.577
188.0, 26985.90928148142, -4241.98111796154, 15542.55372793123, -2984.2931609503225, 15668.885787592626, 7671.096345316929, -187500.02235174447, -187500.02235174447, -0.168, -0.762, -0.628, 192.0, 0.0, 0.0, 0.0, 0.0, 0.0, 0.0, 0.0, 0.0, 0.0, 1.6776148095816565E9, 0.0, 2023-02-28 12:06:49.581
189.0, 26906.068850287065, -4248.50782734249, 15025.557878679978, -2980.046329503814, 15395.747470348773, 7386.446879678593, -187500.02235174447, -187500.02235174447, -0.17, -0.764, -0.636, 192.0, 250.0, 176.0, 232.0, 32.0, 236.0, 32.0, 0.0, 0.0, 0.0, 1.6776148095866392E9, 0.0, 2023-02-28 12:06:49.586
190.0, 26816.818334677024, -4253.849894267309, 14413.522412004759, -2980.247495203912, 15066.930957666751, 7169.523199739838, -187500.02235174447, -187500.02235174447, -0.17, -0.764, -0.636, 192.0, 0.0, 0.0, 0.0, 0.0, 0.0, 0.0, 0.0, 0.0, 0.0, 1.6776148095896535E9, 0.0, 2023-02-28 12:06:49.589
191.0, 26875.871643527946, -4257.582635591345, 14841.31244913488, -2988.8305650747498, 15284.324024239068, 7420.376827761749, -187500.02235174447, -187500.02235174447, -0.17, -0.764, -0.636, 192.0, 0.0, 0.0, 0.0, 0.0, 0.0, 0.0, 0.0, 0.0, 0.0, 1.6776148095926936E9, 0.0, 2023-02-28 12:06:49.592
192.0, 26978.935537211364, -4260.711879815088, 15528.136852757556, -2992.1609749985905, 15650.803226328282, 7667.8329906264535, -187500.02235174447, -187500.02235174447, -0.17, -0.764, -0.636, 192.0, 0.0, 0.0, 0.0, 0.0, 0.0, 0.0, 0.0, 0.0, 0.0, 1.67761480959769E9, 0.0, 2023-02-28 12:06:49.597
193.0, 26904.437172941827, -4260.443658881624, 15171.805342651052, -2983.9802365279484, 15473.732706753339, 7437.475912270059, -187500.02235174447, -187500.02235174447, -0.17, -0.764, -0.636, 192.0, 0.0, 0.0, 0.0, 0.0, 0.0, 0.0, 0.0, 0.0, 0.0, 1.6776148096017275E9, 0.0, 2023-02-28 12:06:49.601
194.0, 26801.216817047218, -4258.811981536386, 14452.772075268278, -2979.286370192334, 15096.457612092212, 7168.18209507252, -187500.02235174447, -187500.02235174447, -0.17, -0.764, -0.636, 192.0, 0.0, 0.0, 0.0, 0.0, 0.0, 0.0, 0.0, 0.0, 0.0, 1.677614809605738E9, 0.0, 2023-02-28 12:06:49.605
195.0, 26856.872660740933, -4259.035498980939, 14705.637360291168, -2987.444756918521, 15223.527279320631, 7351.466399606037, -187500.02235174447, -187500.02235174447, -0.17, -0.764, -0.636, 192.0, 0.0, 0.0, 0.0, 0.0, 0.0, 0.0, 0.0, 0.0, 0.0, 1.6776148096097012E9, 0.0, 2023-02-28 12:06:49.609
196.0, 26953.76747295469, -4257.359118146792, 15466.982479927836, -2993.010341287892, 15624.338760893199, 7653.729039875155, -187500.02235174447, -187500.02235174447, -0.17, -0.764, -0.636, 192.0, 0.0, 0.0, 0.0, 0.0, 0.0, 0.0, 0.0, 0.0, 0.0, 1.677614809613676E9, 0.0, 2023-02-28 12:06:49.613
197.0, 26908.9522253218, -4253.1569901891935, 15303.770041915184, -2986.058948762292, 15548.968678589903, 7502.161860723718, -187500.02235174447, -187500.02235174447, -0.17, -0.764, -0.636, 192.0, 0.0, 0.0, 0.0, 0.0, 0.0, 0.0, 0.0, 0.0, 0.0, 1.6776148096176748E9, 0.0, 2023-02-28 12:06:49.617
198.0, 26794.399534988348, -4249.334841887337, 14530.712608183934, -2979.8451638037163, 15140.46819692471, 7190.355025572184, -187500.02235174447, -187500.02235174447, -0.17, -0.764, -0.636, 192.0, 0.0, 0.0, 0.0, 0.0, 0.0, 0.0, 0.0, 0.0, 0.0, 1.677614809620608E9, 0.0, 2023-02-28 12:06:49.620
199.0, 26843.01457917864, -4248.194902920116, 14589.452992612481, -2985.4554516619983, 15162.28349951309, 7302.583134482281, -187500.02235174447, -187500.02235174447, -0.17, -0.766, -0.638, 192.0, 250.0, 176.0, 232.0, 16.0, 236.0, 16.0, 0.0, 0.0, 0.0, 1.6776148096256728E9, 0.0, 2023-02-28 12:06:49.625
200.0, 26991.497217595246, -4250.31831864337, 15371.831103781595, -2993.4797279214536, 15570.314594544721, 7631.980792520141, -187500.02235174447, -187500.02235174447, -0.17, -0.766, -0.638, 192.0, 0.0, 0.0, 0.0, 0.0, 0.0, 0.0, 0.0, 0.0, 0.0, 1.6776148096296856E9, 0.0, 2023-02-28 12:06:49.629
201.0, 26992.950080984843, -4245.624452307756, 15414.612342669052, -2988.3611784411883, 15599.081289658701, 7564.053841120463, -187500.02235174447, -187500.02235174447, -0.17, -0.766, -0.638, 192.0, 0.0, 0.0, 0.0, 0.0, 0.0, 0.0, 0.0, 0.0, 0.0, 1.6776148096337223E9, 0.0, 2023-02-28 12:06:49.633
202.0, 26835.526744786115, -4242.0034697059955, 14640.526728692857, -2980.627474859652, 15188.4350405258, 7232.868043526179, -187500.02235174447, -187500.02235174447, -0.17, -0.766, -0.638, 192.0, 0.0, 0.0, 0.0, 0.0, 0.0, 0.0, 0.0, 0.0, 0.0, 1.6776148096376476E9, 0.0, 2023-02-28 12:06:49.637
203.0, 26825.9825499037, -4241.712897028076, 14501.767099114311, -2984.3825679281435, 15103.945446484739, 7264.763982863901, -187500.02235174447, -187500.02235174447, -0.17, -0.766, -0.638, 192.0, 0.0, 0.0, 0.0, 0.0, 0.0, 0.0, 0.0, 0.0, 0.0, 1.6776148096426604E9, 0.0, 2023-02-28 12:06:49.642
204.0, 26957.52256602318, -4244.529216829445, 15253.63507910193, -2992.8762308211603, 15490.943549983926, 7605.1363474293175, -187500.02235174447, -187500.02235174447, -0.17, -0.766, -0.638, 192.0, 0.0, 0.0, 0.0, 0.0, 0.0, 0.0, 0.0, 0.0, 0.0, 1.677614809645666E9, 0.0, 2023-02-28 12:06:49.645
205.0, 26990.44668560585, -4243.724554029054, 15496.196209930922, -2989.2999517083113, 15631.916002263548, 7625.163510461272, -187500.02235174447, -187500.02235174447, -0.17, -0.766, -0.638, 192.0, 0.0, 0.0, 0.0, 0.0, 0.0, 0.0, 0.0, 0.0, 0.0, 1.6776148096507075E9, 0.0, 2023-02-28 12:06:49.650
206.0, 26857.16323341885, -4242.31639412837, 14769.853922111264, -2980.3816056706437, 15253.031582001637, 7288.30036977534, -187500.02235174447, -187500.02235174447, -0.17, -0.766, -0.638, 192.0, 0.0, 0.0, 0.0, 0.0, 0.0, 0.0, 0.0, 0.0, 0.0, 1.6776148096536603E9, 0.0, 2023-02-28 12:06:49.653
207.0, 26822.160401601843, -4242.539911572923, 14441.417389084983, -2983.2873324498337, 15070.864864690884, 7225.067284711276, -187500.02235174447, -187500.02235174447, -0.17, -0.766, -0.638, 192.0, 0.0, 0.0, 0.0, 0.0, 0.0, 0.0, 0.0, 0.0, 0.0, 1.6776148096586828E9, 0.0, 2023-02-28 12:06:49.658
208.0, 26958.19311835684, -4240.103571427295, 15113.489641367156, -2991.0657395202807, 15424.581220696118, 7554.35318402686, -187500.02235174447, -187500.02235174447, -0.17, -0.766, -0.638, 192.0, 0.0, 0.0, 0.0, 0.0, 0.0, 0.0, 0.0, 0.0, 0.0, 1.6776148096616762E9, 0.0, 2023-02-28 12:06:49.661
209.0, 27024.68955811138, -4233.040420179417, 15541.056161052724, -2988.2270679744565, 15659.609813643672, 7662.08859230144, -187500.02235174447, -187500.02235174447, -0.176, -0.77, -0.634, 192.0, 250.0, 128.0, 231.0, 240.0, 236.0, 48.0, 0.0, 0.0, 0.0, 1.677614809664706E9, 0.0, 2023-02-28 12:06:49.664
210.0, 26900.235044984227, -4229.5982515333, 14908.546496456445, -2978.3923004141216, 15331.75442597323, 7347.398382115171, -187500.02235174447, -187500.02235174447, -0.176, -0.77, -0.634, 192.0, 0.0, 0.0, 0.0, 0.0, 0.0, 0.0, 0.0, 0.0, 0.0, 1.677614809669669E9, 0.0, 2023-02-28 12:06:49.669
211.0, 26829.134145871896, -4230.31350735587, 14408.113289846575, -2978.1017277362025, 15065.4557425327, 7199.273371609852, -187500.02235174447, -187500.02235174447, -0.176, -0.77, -0.634, 192.0, 0.0, 0.0, 0.0, 0.0, 0.0, 0.0, 0.0, 0.0, 0.0, 1.6776148096767783E9, 0.0, 2023-02-28 12:06:49.676
212.0, 26935.88607739044, -4233.129827157239, 14959.86610172583, -2986.9306667960486, 15353.569728561608, 7485.889790760254, -187500.02235174447, -187500.02235174447, -0.176, -0.77, -0.634, 192.0, 0.0, 0.0, 0.0, 0.0, 0.0, 0.0, 0.0, 0.0, 0.0, 1.6776148096796834E9, 0.0, 2023-02-28 12:06:49.679
213.0, 27028.757575602245, -4230.894652711708, 15546.062951810713, -2986.9753702849594, 15664.750714868393, 7681.534609977557, -187500.02235174447, -187500.02235174447, -0.176, -0.77, -0.634, 192.0, 0.0, 0.0, 0.0, 0.0, 0.0, 0.0, 0.0, 0.0, 0.0, 1.6776148096837456E9, 0.0, 2023-02-28 12:06:49.683
214.0, 26928.621760442467, -4228.570071288356, 15050.681239447742, -2977.3864719136327, 15411.840726356593, 7405.490565954515, -187500.02235174447, -187500.02235174447, -0.176, -0.77, -0.634, 192.0, 0.0, 0.0, 0.0, 0.0, 0.0, 0.0, 0.0, 0.0, 0.0, 1.6776148096866996E9, 0.0, 2023-02-28 12:06:49.686
215.0, 26828.195372604772, -4230.69348701161, 14414.036502127232, -2974.4807451344427, 15075.22345485967, 7186.465822036961, -187500.02235174447, -187500.02235174447, -0.176, -0.77, -0.634, 192.0, 0.0, 0.0, 0.0, 0.0, 0.0, 0.0, 0.0, 0.0, 0.0, 1.6776148096896944E9, 0.0, 2023-02-28 12:06:49.689
216.0, 26907.253492743195, -4233.442751579613, 14814.825631955342, -2982.4826696494424, 15277.774963113663, 7428.758731932489, -187500.02235174447, -187500.02235174447, -0.176, -0.77, -0.634, 192.0, 0.0, 0.0, 0.0, 0.0, 0.0, 0.0, 0.0, 0.0, 0.0, 1.6776148096927488E9, 0.0, 2023-02-28 12:06:49.692
217.0, 27023.281398210693, -4230.31350735587, 15513.474108394876, -2985.187230728535, 15649.551528638785, 7685.624979212878, -187500.02235174447, -187500.02235174447, -0.176, -0.77, -0.634, 192.0, 0.0, 0.0, 0.0, 0.0, 0.0, 0.0, 0.0, 0.0, 0.0, 1.6776148096977417E9, 0.0, 2023-02-28 12:06:49.697
218.0, 26953.14162410994, -4228.704181755088, 15187.33980504749, -2977.609989358186, 15483.790991758227, 7471.495267331036, -187500.02235174447, -187500.02235174447, -0.176, -0.77, -0.634, 192.0, 0.0, 0.0, 0.0, 0.0, 0.0, 0.0, 0.0, 0.0, 0.0, 1.6776148097017505E9, 0.0, 2023-02-28 12:06:49.701
219.0, 26832.35279707346, -4231.721667256555, 14458.181197426464, -2974.212524200979, 15095.205914402713, 7194.624208763148, -187500.02235174447, -187500.02235174447, -0.17400000000000002, -0.77, -0.638, 192.0, 250.0, 144.0, 231.0, 240.0, 236.0, 16.0, 0.0, 0.0, 0.0, 1.6776148097056785E9, 0.0, 2023-02-28 12:06:49.705
220.0, 26888.65684135638, -4234.9626702025735, 14678.479990777969, -2982.2591522048897, 15204.058909900059, 7368.006690502965, -187500.02235174447, -187500.02235174447, -0.17400000000000002, -0.77, -0.638, 192.0, 0.0, 0.0, 0.0, 0.0, 0.0, 0.0, 0.0, 0.0, 0.0, 1.677614809709705E9, 0.0, 2023-02-28 12:06:49.709
221.0, 27016.575874874103, -4233.621565535255, 15442.306154049178, -2987.377701685155, 15609.363092108142, 7675.723156419177, -187500.02235174447, -187500.02235174447, -0.17400000000000002, -0.77, -0.638, 192.0, 0.0, 0.0, 0.0, 0.0, 0.0, 0.0, 0.0, 0.0, 0.0, 1.677614809713826E9, 0.0, 2023-02-28 12:06:49.713
222.0, 26959.645981746435, -4233.085123668328, 15311.682559452363, -2980.247495203912, 15549.482768712374, 7532.426122716203, -187500.02235174447, -187500.02235174447, -0.17400000000000002, -0.77, -0.638, 192.0, 0.0, 0.0, 0.0, 0.0, 0.0, 0.0, 0.0, 0.0, 0.0, 1.6776148097167563E9, 0.0, 2023-02-28 12:06:49.716
223.0, 26822.965064402233, -4234.113303913272, 14538.44631176547, -2973.631378845141, 15142.099874269948, 7211.253906637897, -187500.02235174447, -187500.02235174447, -0.17400000000000002, -0.77, -0.638, 192.0, 0.0, 0.0, 0.0, 0.0, 0.0, 0.0, 0.0, 0.0, 0.0, 1.6776148097207756E9, 0.0, 2023-02-28 12:06:49.720
224.0, 26858.616096808448, -4228.83829222182, 14564.597852778179, -2978.213486458479, 15151.197034263258, 7306.964076395521, -187500.02235174447, -187500.02235174447, -0.17400000000000002, -0.77, -0.638, 192.0, 0.0, 0.0, 0.0, 0.0, 0.0, 0.0, 0.0, 0.0, 0.0, 1.6776148097257984E9, 0.0, 2023-02-28 12:06:49.725
225.0, 26996.72752579779, -4224.16677763066, 15339.532833043675, -2984.784899328339, 15564.369030519609, 7635.042981510518, -187500.02235174447, -187500.02235174447, -0.17400000000000002, -0.77, -0.638, 192.0, 0.0, 0.0, 0.0, 0.0, 0.0, 0.0, 0.0, 0.0, 0.0, 1.6776148097298236E9, 0.0, 2023-02-28 12:06:49.729
226.0, 26987.786828015665, -4224.546757286401, 15415.439357213898, -2980.5827713707413, 15609.251333385866, 7579.588303516902, -187500.02235174447, -187500.02235174447, -0.17400000000000002, -0.77, -0.638, 192.0, 0.0, 0.0, 0.0, 0.0, 0.0, 0.0, 0.0, 0.0, 0.0, 1.6776148097338817E9, 0.0, 2023-02-28 12:06:49.733
227.0, 26847.194355391784, -4228.726533499544, 14650.920289864576, -2974.1901724565237, 15207.501078546176, 7245.116799487687, -187500.02235174447, -187500.02235174447, -0.17400000000000002, -0.77, -0.638, 192.0, 0.0, 0.0, 0.0, 0.0, 0.0, 0.0, 0.0, 0.0, 0.0, 1.6776148097377608E9, 0.0, 2023-02-28 12:06:49.737
228.0, 26837.06901515353, -4229.955879444585, 14480.6670523485, -2978.213486458479, 15106.18062093027, 7256.113857759698, -187500.02235174447, -187500.02235174447, -0.17400000000000002, -0.77, -0.638, 192.0, 0.0, 0.0, 0.0, 0.0, 0.0, 0.0, 0.0, 0.0, 0.0, 1.6776148097407615E9, 0.0, 2023-02-28 12:06:49.740
229.0, 26977.795598244145, -4228.368905588259, 15218.386378095911, -2986.170707484568, 15490.854143006105, 7593.379329845826, -187500.02235174447, -187500.02235174447, -0.17, -0.766, -0.64, 192.0, 250.0, 176.0, 232.0, 16.0, 236.0, 0.0, 0.0, 0.0, 0.0, 1.6776148097448337E9, 0.0, 2023-02-28 12:06:49.744
230.0, 27003.075421223097, -4229.441789322113, 15494.609236074595, -2984.047291761314, 15639.403836656074, 7629.611507607879, -187500.02235174447, -187500.02235174447, -0.17, -0.766, -0.64, 192.0, 0.0, 0.0, 0.0, 0.0, 0.0, 0.0, 0.0, 0.0, 0.0, 1.677614809748777E9, 0.0, 2023-02-28 12:06:49.748
231.0, 26865.813358523057, -4230.492321311513, 14785.634253696711, -2976.5371056243307, 15261.569948383565, 7299.051558858342, -187500.02235174447, -187500.02235174447, -0.17, -0.766, -0.64, 192.0, 0.0, 0.0, 0.0, 0.0, 0.0, 0.0, 0.0, 0.0, 0.0, 1.6776148097537425E9, 0.0, 2023-02-28 12:06:49.753
232.0, 26821.512201012636, -4231.274632367448, 14429.168633123474, -2979.8675155481715, 15061.11950410837, 7229.269412668874, -187500.02235174447, -187500.02235174447, -0.17, -0.766, -0.64, 192.0, 0.0, 0.0, 0.0, 0.0, 0.0, 0.0, 0.0, 0.0, 0.0, 1.6776148097577348E9, 0.0, 2023-02-28 12:06:49.757
233.0, 26948.760682196702, -4230.157045144683, 15082.59953052992, -2988.8976203081156, 15403.078842530114, 7546.932404867698, -187500.02235174447, -187500.02235174447, -0.17, -0.766, -0.64, 192.0, 0.0, 0.0, 0.0, 0.0, 0.0, 0.0, 0.0, 0.0, 0.0, 1.6776148097617595E9, 0.0, 2023-02-28 12:06:49.761
234.0, 27006.115258469017, -4229.039457921917, 15539.55859417422, -2988.0035505299034, 15648.992735027401, 7669.129391804861, -187500.02235174447, -187500.02235174447, -0.17, -0.766, -0.64, 192.0, 0.0, 0.0, 0.0, 0.0, 0.0, 0.0, 0.0, 0.0, 0.0, 1.6776148097658303E9, 0.0, 2023-02-28 12:06:49.765
235.0, 26898.491608916716, -4228.9724026885515, 14931.613496734322, -2979.4651841479763, 15335.017780663704, 7359.7812485434115, -187500.02235174447, -187500.02235174447, -0.17, -0.766, -0.64, 192.0, 0.0, 0.0, 0.0, 0.0, 0.0, 0.0, 0.0, 0.0, 0.0, 1.6776148097688096E9, 0.0, 2023-02-28 12:06:49.768
236.0, 26823.63561673589, -4230.537024800423, 14410.460223014383, -2979.8004603148056, 15056.269175561569, 7201.240325121918, -187500.02235174447, -187500.02235174447, -0.17, -0.766, -0.64, 192.0, 0.0, 0.0, 0.0, 0.0, 0.0, 0.0, 0.0, 0.0, 0.0, 1.6776148097728014E9, 0.0, 2023-02-28 12:06:49.772
237.0, 26935.88607739044, -4228.1453881437055, 14934.34040955787, -2988.070605763269, 15331.307391084123, 7481.285331402461, -187500.02235174447, -187500.02235174447, -0.17, -0.766, -0.64, 192.0, 0.0, 0.0, 0.0, 0.0, 0.0, 0.0, 0.0, 0.0, 0.0, 1.6776148097768674E9, 0.0, 2023-02-28 12:06:49.776
238.0, 27031.797412848166, -4222.624507263245, 15541.480844197375, -2987.5788673852526, 15659.654517132583, 7682.048700100029, -187500.02235174447, -187500.02235174447, -0.17, -0.766, -0.64, 192.0, 0.0, 0.0, 0.0, 0.0, 0.0, 0.0, 0.0, 0.0, 0.0, 1.6776148097808068E9, 0.0, 2023-02-28 12:06:49.780
239.0, 26931.639245943934, -4221.395161318203, 15074.038812403538, -2978.5487626253084, 15420.312037505155, 7415.459443981582, -187500.02235174447, -187500.02235174447, -0.17, -0.766, -0.64, 192.0, 0.0, 0.0, 0.0, 0.0, 0.0, 0.0, 0.0, 0.0, 0.0, 1.6776148097858052E9, 0.0, 2023-02-28 12:06:49.785
240.0, 26824.864962680935, -4225.172606131149, 14423.357179565095, -2976.5147538798756, 15072.563597269487, 7191.807888961779, -187500.02235174447, -187500.02235174447, -0.17200000000000001, -0.762, -0.64, 192.0, 250.0, 160.0, 232.0, 48.0, 236.0, 0.0, 0.0, 0.0, 0.0, 1.677614809789825E9, 0.0, 2023-02-28 12:06:49.789
241.0, 26910.04746080011, -4223.384466574725, 14787.131820575218, -2983.153221983102, 15258.060724504081, 7421.337952773328, -187500.02235174447, -187500.02235174447, -0.17200000000000001, -0.762, -0.64, 192.0, 0.0, 0.0, 0.0, 0.0, 0.0, 0.0, 0.0, 0.0, 0.0, 1.6776148097928805E9, 0.0, 2023-02-28 12:06:49.792
242.0, 27020.7780028317, -4223.965611930563, 15496.643244820028, -2986.953018540504, 15634.598211598184, 7683.836839656454, -187500.02235174447, -187500.02235174447, -0.17200000000000001, -0.762, -0.64, 192.0, 0.0, 0.0, 0.0, 0.0, 0.0, 0.0, 0.0, 0.0, 0.0, 1.677614809796816E9, 0.0, 2023-02-28 12:06:49.796
243.0, 26946.48080426226, -4225.396123575702, 15203.72363373323, -2978.4817073919426, 15485.042689447724, 7483.095822703341, -187500.02235174447, -187500.02235174447, -0.17200000000000001, -0.762, -0.64, 192.0, 0.0, 0.0, 0.0, 0.0, 0.0, 0.0, 0.0, 0.0, 0.0, 1.6776148098007984E9, 0.0, 2023-02-28 12:06:49.800
244.0, 26824.64144523638, -4228.1453881437055, 14466.183121941463, -2974.145468967613, 15090.84732423393, 7201.039159421821, -187500.02235174447, -187500.02235174447, -0.17200000000000001, -0.762, -0.64, 192.0, 0.0, 0.0, 0.0, 0.0, 0.0, 0.0, 0.0, 0.0, 0.0, 1.67761480980485E9, 0.0, 2023-02-28 12:06:49.804
245.0, 26890.422629168348, -4228.637126521722, 14652.529615465357, -2981.58859987123, 15181.461296255744, 7363.31282416735, -187500.02235174447, -187500.02235174447, -0.17200000000000001, -0.762, -0.64, 192.0, 0.0, 0.0, 0.0, 0.0, 0.0, 0.0, 0.0, 0.0, 0.0, 1.677614809809857E9, 0.0, 2023-02-28 12:06:49.809
246.0, 27013.692499839366, -4226.31254509837, 15419.082691560114, -2986.5506871403086, 15588.643024998073, 7673.063298828995, -187500.02235174447, -187500.02235174447, -0.17200000000000001, -0.762, -0.64, 192.0, 0.0, 0.0, 0.0, 0.0, 0.0, 0.0, 0.0, 0.0, 0.0, 1.6776148098138282E9, 0.0, 2023-02-28 12:06:49.813
247.0, 26966.373856827482, -4227.608946276778, 15322.836079935561, -2979.5545911257973, 15547.068780311201, 7545.300727522461, -187500.02235174447, -187500.02235174447, -0.17200000000000001, -0.762, -0.64, 192.0, 0.0, 0.0, 0.0, 0.0, 0.0, 0.0, 0.0, 0.0, 0.0, 1.6776148098178103E9, 0.0, 2023-02-28 12:06:49.817
248.0, 26829.44707029427, -4228.771236988454, 14550.493902026881, -2972.044404988814, 15135.349647444446, 7223.413255621584, -187500.02235174447, -187500.02235174447, -0.17200000000000001, -0.762, -0.64, 192.0, 0.0, 0.0, 0.0, 0.0, 0.0, 0.0, 0.0, 0.0, 0.0, 1.677614809820826E9, 0.0, 2023-02-28 12:06:49.820
249.0, 26850.03302693761, -4230.0899899113165, 14540.435617021993, -2977.118250980169, 15120.619847848398, 7304.4830327609825, -187500.02235174447, -187500.02235174447, -0.17200000000000001, -0.762, -0.64, 192.0, 0.0, 0.0, 0.0, 0.0, 0.0, 0.0, 0.0, 0.0, 0.0, 1.6776148098248556E9, 0.0, 2023-02-28 12:06:49.824
250.0, 26980.813083745612, -4232.749847501498, 15309.73795768475, -2985.2542859619007, 15532.160166759511, 7633.813635565476, -187500.02235174447, -187500.02235174447, -0.17200000000000001, -0.762, -0.646, 192.0, 250.0, 160.0, 232.0, 48.0, 235.0, 208.0, 0.0, 0.0, 0.0, 1.6776148098288918E9, 0.0, 2023-02-28 12:06:49.828
251.0, 26981.751857012732, -4230.268803866959, 15418.300380504177, -2980.180439970546, 15597.784888480293, 7595.83802173591, -187500.02235174447, -187500.02235174447, -0.17200000000000001, -0.762, -0.646, 192.0, 0.0, 0.0, 0.0, 0.0, 0.0, 0.0, 0.0, 0.0, 0.0, 1.6776148098328571E9, 0.0, 2023-02-28 12:06:49.832
252.0, 26841.36055008895, -4231.520501556457, 14661.738534180944, -2973.139640467124, 15197.040462141093, 7261.321814217784, -187500.02235174447, -187500.02235174447, -0.17200000000000001, -0.762, -0.646, 192.0, 0.0, 0.0, 0.0, 0.0, 0.0, 0.0, 0.0, 0.0, 0.0, 1.6776148098368416E9, 0.0, 2023-02-28 12:06:49.836
253.0, 26822.8309539355, -4237.421362092658, 14460.706944549913, -2978.5487626253084, 15083.001861930117, 7252.224654224474, -187500.02235174447, -187500.02235174447, -0.17200000000000001, -0.762, -0.646, 192.0, 0.0, 0.0, 0.0, 0.0, 0.0, 0.0, 0.0, 0.0, 0.0, 1.6776148098419342E9, 0.0, 2023-02-28 12:06:49.841
254.0, 26966.19504287184, -4237.868396981764, 15184.38937477939, -2987.02007377387, 15465.686078749428, 7581.1305738843175, -187500.02235174447, -187500.02235174447, -0.17200000000000001, -0.762, -0.646, 192.0, 0.0, 0.0, 0.0, 0.0, 0.0, 0.0, 0.0, 0.0, 0.0, 1.677614809845889E9, 0.0, 2023-02-28 12:06:49.845
255.0, 26998.135685698475, -4237.622527792755, 15493.06696570718, -2985.701320851007, 15635.536984865306, 7627.577498862446, -187500.02235174447, -187500.02235174447, -0.17200000000000001, -0.762, -0.646, 192.0, 0.0, 0.0, 0.0, 0.0, 0.0, 0.0, 0.0, 0.0, 0.0, 1.6776148098489785E9, 0.0, 2023-02-28 12:06:49.848
0.0, 26858.861965997454, -4239.991812705018, 14800.341701548303, -2978.1240794806577, 15269.773038598662, 7300.571477481303, -187500.02235174447, -187500.02235174447, -0.17200000000000001, -0.762, -0.646, 192.0, 0.0, 0.0, 0.0, 0.0, 0.0, 0.0, 0.0, 0.0, 0.0, 1.6776148098528728E9, 0.0, 2023-02-28 12:06:49.852
1.0, 26812.77266893061, -4240.371792360758, 14417.27750507325, -2980.269846948367, 15054.525739494055, 7214.226688650452, -187500.02235174447, -187500.02235174447, -0.17200000000000001, -0.762, -0.646, 192.0, 0.0, 0.0, 0.0, 0.0, 0.0, 0.0, 0.0, 0.0, 0.0, 1.677614809856922E9, 0.0, 2023-02-28 12:06:49.856
2.0, 26932.555667466604, -4239.880053982742, 15050.79299817002, -2989.143489497124, 15381.822333553117, 7527.307573235938, -187500.02235174447, -187500.02235174447, -0.17200000000000001, -0.762, -0.646, 192.0, 0.0, 0.0, 0.0, 0.0, 0.0, 0.0, 0.0, 0.0, 0.0, 1.6776148098609316E9, 0.0, 2023-02-28 12:06:49.860
3.0, 27005.623520091, -4236.415533592169, 15534.261230738311, -2988.5846958857414, 15640.297906434287, 7663.832028368954, -187500.02235174447, -187500.02235174447, -0.17200000000000001, -0.762, -0.646, 192.0, 0.0, 0.0, 0.0, 0.0, 0.0, 0.0, 0.0, 0.0, 0.0, 1.6776148098649137E9, 0.0, 2023-02-28 12:06:49.864
4.0, 26886.667536099856, -4236.437885336624, 14948.869043453818, -2979.688701592529, 15332.804957962628, 7366.486771880004, -187500.02235174447, -187500.02235174447, -0.17400000000000002, -0.754, -0.642, 192.0, 250.0, 144.0, 232.0, 112.0, 235.0, 240.0, 0.0, 0.0, 0.0, 1.6776148098699138E9, 0.0, 2023-02-28 12:06:49.869
5.0, 26805.575407216, -4237.443713837113, 14406.034577612232, -2978.437003903032, 15040.913527120772, 7197.8875634536225, -187500.02235174447, -187500.02235174447, -0.17400000000000002, -0.754, -0.642, 192.0, 0.0, 0.0, 0.0, 0.0, 0.0, 0.0, 0.0, 0.0, 0.0, 1.6776148098738573E9, 0.0, 2023-02-28 12:06:49.873
6.0, 26915.56834168057, -4237.8907487262195, 14907.451260978134, -2988.0035505299034, 15300.819611647084, 7469.818886496889, -187500.02235174447, -187500.02235174447, -0.17400000000000002, -0.754, -0.642, 192.0, 0.0, 0.0, 0.0, 0.0, 0.0, 0.0, 0.0, 0.0, 0.0, 1.677614809878009E9, 0.0, 2023-02-28 12:06:49.878
7.0, 27022.119107499017, -4233.174530646149, 15533.478919682375, -2990.3057802088, 15635.089949976202, 7683.523915234079, -187500.02235174447, -187500.02235174447, -0.17400000000000002, -0.754, -0.642, 192.0, 0.0, 0.0, 0.0, 0.0, 0.0, 0.0, 0.0, 0.0, 0.0, 1.6776148098809073E9, 0.0, 2023-02-28 12:06:49.880
8.0, 26934.8578971455, -4232.16870214566, 15095.630597547364, -2981.7227103379623, 15411.863078101049, 7428.646973210213, -187500.02235174447, -187500.02235174447, -0.17400000000000002, -0.754, -0.642, 192.0, 0.0, 0.0, 0.0, 0.0, 0.0, 0.0, 0.0, 0.0, 0.0, 1.677614809884943E9, 0.0, 2023-02-28 12:06:49.884
9.0, 26824.954369658753, -4234.9626702025735, 14429.839185457133, -2978.7052248364957, 15056.425637772756, 7191.763185472869, -187500.02235174447, -187500.02235174447, -0.17400000000000002, -0.754, -0.642, 192.0, 0.0, 0.0, 0.0, 0.0, 0.0, 0.0, 0.0, 0.0, 0.0, 1.67761480988894E9, 0.0, 2023-02-28 12:06:49.888
10.0, 26899.18451299483, -4235.566167302867, 14770.92680584512, -2986.5506871403086, 15231.417445113355, 7407.055188066386, -187500.02235174447, -187500.02235174447, -0.17400000000000002, -0.754, -0.642, 192.0, 0.0, 0.0, 0.0, 0.0, 0.0, 0.0, 0.0, 0.0, 0.0, 1.6776148098929665E9, 0.0, 2023-02-28 12:06:49.892
11.0, 27020.979168531798, -4231.766370745465, 15492.798744773716, -2989.724634852962, 15618.124975934623, 7674.963197107697, -187500.02235174447, -187500.02235174447, -0.17400000000000002, -0.754, -0.642, 192.0, 0.0, 0.0, 0.0, 0.0, 0.0, 0.0, 0.0, 0.0, 0.0, 1.6776148098979492E9, 0.0, 2023-02-28 12:06:49.897
12.0, 26965.77035972719, -4228.301850354892, 15231.573907324542, -2981.92387603806, 15492.798744773716, 7482.537029091958, -187500.02235174447, -187500.02235174447, -0.17400000000000002, -0.754, -0.642, 192.0, 0.0, 0.0, 0.0, 0.0, 0.0, 0.0, 0.0, 0.0, 0.0, 1.677614809901922E9, 0.0, 2023-02-28 12:06:49.901
13.0, 26836.376111075417, -4227.497187554502, 14483.8186483167, -2976.671216091063, 15098.581027815466, 7197.239362864419, -187500.02235174447, -187500.02235174447, -0.17400000000000002, -0.754, -0.642, 192.0, 0.0, 0.0, 0.0, 0.0, 0.0, 0.0, 0.0, 0.0, 0.0, 1.6776148099049802E9, 0.0, 2023-02-28 12:06:49.904
14.0, 26882.979498264733, -4230.671135267155, 14638.358609480692, -2983.7790708278503, 15174.331089774501, 7342.726867524013, -187500.02235174447, -187500.02235174447, -0.17, -0.752, -0.634, 192.0, 250.0, 176.0, 232.0, 128.0, 236.0, 48.0, 0.0, 0.0, 0.0, 1.6776148099089842E9, 0.0, 2023-02-28 12:06:49.908
15.0, 27021.381499931995, -4233.912138213174, 15407.973874565825, -2990.5292976533533, 15581.937501661481, 7650.577443906956, -187500.02235174447, -187500.02235174447, -0.17, -0.752, -0.634, 192.0, 0.0, 0.0, 0.0, 0.0, 0.0, 0.0, 0.0, 0.0, 0.0, 1.6776148099129312E9, 0.0, 2023-02-28 12:06:49.912
16.0, 27012.507857383236, -4232.995716690507, 15345.456045324332, -2983.2649807053785, 15559.541053717263, 7537.768189641022, -187500.02235174447, -187500.02235174447, -0.17, -0.752, -0.634, 192.0, 0.0, 0.0, 0.0, 0.0, 0.0, 0.0, 0.0, 0.0, 0.0, 1.6776148099169412E9, 0.0, 2023-02-28 12:06:49.916
17.0, 26885.594652366002, -4234.761504502476, 14571.638652281601, -2976.11242247968, 15150.012391807128, 7213.645543294614, -187500.02235174447, -187500.02235174447, -0.17, -0.752, -0.634, 192.0, 0.0, 0.0, 0.0, 0.0, 0.0, 0.0, 0.0, 0.0, 0.0, 1.6776148099209547E9, 0.0, 2023-02-28 12:06:49.920
18.0, 26863.17585267733, -4238.5389493154225, 14528.388026760582, -2981.0968614932135, 15117.4682518802, 7278.666767915102, -187500.02235174447, -187500.02235174447, -0.17, -0.752, -0.634, 192.0, 0.0, 0.0, 0.0, 0.0, 0.0, 0.0, 0.0, 0.0, 0.0, 1.6776148099259815E9, 0.0, 2023-02-28 12:06:49.925
19.0, 26997.599243831548, -4240.014164449473, 15293.152963298913, -2988.785861585839, 15516.64805610753, 7611.305428898982, -187500.02235174447, -187500.02235174447, -0.17, -0.752, -0.634, 192.0, 0.0, 0.0, 0.0, 0.0, 0.0, 0.0, 0.0, 0.0, 0.0, 1.6776148099299734E9, 0.0, 2023-02-28 12:06:49.929
20.0, 27026.79062209018, -4243.925719729152, 15438.10402609158, -2986.416576673577, 15602.478754815907, 7585.802088475477, -187500.02235174447, -187500.02235174447, -0.17, -0.752, -0.634, 192.0, 0.0, 0.0, 0.0, 0.0, 0.0, 0.0, 0.0, 0.0, 0.0, 1.677614809932969E9, 0.0, 2023-02-28 12:06:49.932
21.0, 26862.88527999941, -4243.8810162402415, 14688.7170897385, -2978.3028934363, 15207.322264590535, 7249.050706511821, -187500.02235174447, -187500.02235174447, -0.17, -0.752, -0.634, 192.0, 0.0, 0.0, 0.0, 0.0, 0.0, 0.0, 0.0, 0.0, 0.0, 1.6776148099370534E9, 0.0, 2023-02-28 12:06:49.937
22.0, 26808.995224117665, -4246.764391274976, 14453.710848535402, -2982.862649305183, 15076.162228126792, 7231.303421414307, -187500.02235174447, -187500.02235174447, -0.17, -0.752, -0.634, 192.0, 0.0, 0.0, 0.0, 0.0, 0.0, 0.0, 0.0, 0.0, 0.0, 1.6776148099409993E9, 0.0, 2023-02-28 12:06:49.940
23.0, 26939.462356503293, -4247.434943608635, 15164.630432680899, -2993.502079665909, 15448.877566919038, 7556.253082305561, -187500.02235174447, -187500.02235174447, -0.17, -0.752, -0.634, 192.0, 0.0, 0.0, 0.0, 0.0, 0.0, 0.0, 0.0, 0.0, 0.0, 1.6776148099450116E9, 0.0, 2023-02-28 12:06:49.945
24.0, 27036.424223950413, -4252.0394029664285, 15504.444003634932, -2993.6138383881857, 15633.90530752007, 7613.9429347447085, -187500.02235174447, -187500.02235174447, -0.17, -0.76, -0.636, 192.0, 250.0, 176.0, 232.0, 64.0, 236.0, 32.0, 0.0, 0.0, 0.0, 1.677614809949013E9, 0.0, 2023-02-28 12:06:49.949
25.0, 26887.0475157556, -4260.644824581722, 14827.432015828135, -2986.6177423736744, 15277.350279969012, 7291.340207021261, -187500.02235174447, -187500.02235174447, -0.17, -0.76, -0.636, 192.0, 0.0, 0.0, 0.0, 0.0, 0.0, 0.0, 0.0, 0.0, 0.0, 1.6776148099530237E9, 0.0, 2023-02-28 12:06:49.953
26.0, 26793.39370648786, -4258.767278047476, 14412.918914904467, -2986.7071493514954, 15051.642364459321, 7187.002263903888, -187500.02235174447, -187500.02235174447, -0.17, -0.76, -0.636, 192.0, 0.0, 0.0, 0.0, 0.0, 0.0, 0.0, 0.0, 0.0, 0.0, 1.6776148099580464E9, 0.0, 2023-02-28 12:06:49.958
27.0, 26903.364289207973, -4257.314414657881, 15023.792090868008, -2995.4019779446103, 15369.797095036161, 7492.081223974375, -187500.02235174447, -187500.02235174447, -0.17, -0.76, -0.636, 192.0, 0.0, 0.0, 0.0, 0.0, 0.0, 0.0, 0.0, 0.0, 0.0, 1.6776148099610307E9, 0.0, 2023-02-28 12:06:49.961
28.0, 26977.43797033286, -4254.654557067699, 15533.948306315937, -2994.6420186331297, 15649.663287361062, 7640.519158902069, -187500.02235174447, -187500.02235174447, -0.17, -0.76, -0.636, 192.0, 0.0, 0.0, 0.0, 0.0, 0.0, 0.0, 0.0, 0.0, 0.0, 1.6776148099649649E9, 0.0, 2023-02-28 12:06:49.964
29.0, 26865.9921724787, -4255.7944960349205, 14972.785410020997, -2985.3213411952665, 15356.475455340798, 7349.45474260506, -187500.02235174447, -187500.02235174447, -0.17, -0.76, -0.636, 192.0, 0.0, 0.0, 0.0, 0.0, 0.0, 0.0, 0.0, 0.0, 0.0, 1.677614809969004E9, 0.0, 2023-02-28 12:06:49.969
30.0, 26787.24697676265, -4255.056888467895, 14405.006397367288, -2983.01911151637, 15049.228376058147, 7168.338557283707, -187500.02235174447, -187500.02235174447, -0.17, -0.76, -0.636, 192.0, 0.0, 0.0, 0.0, 0.0, 0.0, 0.0, 0.0, 0.0, 0.0, 1.6776148099729848E9, 0.0, 2023-02-28 12:06:49.972
31.0, 26900.14563800641, -4255.235702423537, 14877.410516430202, -2991.4233674315656, 15293.868219121483, 7429.362229032783, -187500.02235174447, -187500.02235174447, -0.17, -0.76, -0.636, 192.0, 0.0, 0.0, 0.0, 0.0, 0.0, 0.0, 0.0, 0.0, 0.0, 1.6776148099770675E9, 0.0, 2023-02-28 12:06:49.977
32.0, 27010.317386426617, -4257.359118146792, 15522.839489321648, -2994.7537773554063, 15636.81103429926, 7652.030307296552, -187500.02235174447, -187500.02235174447, -0.17, -0.76, -0.636, 192.0, 0.0, 0.0, 0.0, 0.0, 0.0, 0.0, 0.0, 0.0, 0.0, 1.677614809980976E9, 0.0, 2023-02-28 12:06:49.980
33.0, 26922.229161528252, -4258.1414292027275, 15114.786042545564, -2986.461280162487, 15428.023389342236, 7403.8588886092775, -187500.02235174447, -187500.02235174447, -0.17, -0.76, -0.636, 192.0, 0.0, 0.0, 0.0, 0.0, 0.0, 0.0, 0.0, 0.0, 0.0, 1.6776148099860013E9, 0.0, 2023-02-28 12:06:49.986
34.0, 26808.145857828364, -4255.07924021235, 14434.644810515025, -2983.153221983102, 15061.633594230843, 7161.811847902757, -187500.02235174447, -187500.02235174447, -0.178, -0.756, -0.636, 192.0, 250.0, 112.0, 232.0, 96.0, 236.0, 32.0, 0.0, 0.0, 0.0, 1.677614809989032E9, 0.0, 2023-02-28 12:06:49.989
35.0, 26882.152483719885, -4252.464086111079, 14740.439026408081, -2991.378663942655, 15215.927686205827, 7362.016422988942, -187500.02235174447, -187500.02235174447, -0.178, -0.756, -0.636, 192.0, 0.0, 0.0, 0.0, 0.0, 0.0, 0.0, 0.0, 0.0, 0.0, 1.67761480999307E9, 0.0, 2023-02-28 12:06:49.993
36.0, 27025.851848823055, -4249.357193631791, 15476.616081788074, -2995.4913849224313, 15606.56912405123, 7643.491940914624, -187500.02235174447, -187500.02235174447, -0.178, -0.756, -0.636, 192.0, 0.0, 0.0, 0.0, 0.0, 0.0, 0.0, 0.0, 0.0, 0.0, 1.6776148099970484E9, 0.0, 2023-02-28 12:06:49.997
37.0, 26982.221243646294, -4244.260995895982, 15250.662297089375, -2987.690626107529, 15492.999910473814, 7460.006470681009, -187500.02235174447, -187500.02235174447, -0.178, -0.756, -0.636, 192.0, 0.0, 0.0, 0.0, 0.0, 0.0, 0.0, 0.0, 0.0, 0.0, 1.6776148100010607E9, 0.0, 2023-02-28 12:06:50.001
38.0, 26857.61026830796, -4242.808132506387, 14498.973131057399, -2980.8733440486603, 15094.043623691037, 7164.672871193036, -187500.02235174447, -187500.02235174447, -0.178, -0.756, -0.636, 192.0, 0.0, 0.0, 0.0, 0.0, 0.0, 0.0, 0.0, 0.0, 0.0, 1.6776148100050669E9, 0.0, 2023-02-28 12:06:50.005
39.0, 26904.23600724173, -4243.07635343985, 14616.208030725484, -2985.9024865511046, 15155.019182565116, 7295.430576256583, -187500.02235174447, -187500.02235174447, -0.178, -0.756, -0.636, 192.0, 0.0, 0.0, 0.0, 0.0, 0.0, 0.0, 0.0, 0.0, 0.0, 1.677614810010085E9, 0.0, 2023-02-28 12:06:50.010
40.0, 27083.385239051015, -4250.117152943272, 15390.51716214623, -2995.4913849224313, 15564.950175875447, 7609.383178875826, -187500.02235174447, -187500.02235174447, -0.178, -0.756, -0.636, 192.0, 0.0, 0.0, 0.0, 0.0, 0.0, 0.0, 0.0, 0.0, 0.0, 1.677614810013121E9, 0.0, 2023-02-28 12:06:50.013
41.0, 27039.26289549624, -4251.41355412168, 15362.689240299374, -2988.338826696733, 15554.310745514722, 7518.746855109555, -187500.02235174447, -187500.02235174447, -0.178, -0.756, -0.636, 192.0, 0.0, 0.0, 0.0, 0.0, 0.0, 0.0, 0.0, 0.0, 0.0, 1.6776148100161104E9, 0.0, 2023-02-28 12:06:50.016
42.0, 26843.64042802339, -4243.679850540144, 14590.011786223864, -2978.861687047683, 15149.833577851485, 7190.623246505648, -187500.02235174447, -187500.02235174447, -0.178, -0.756, -0.636, 192.0, 0.0, 0.0, 0.0, 0.0, 0.0, 0.0, 0.0, 0.0, 0.0, 1.677614810021112E9, 0.0, 2023-02-28 12:06:50.021
43.0, 26879.17970170733, -4246.026783707951, 14516.407491732538, -2984.49432665042, 15103.18548717326, 7233.6950580710245, -187500.02235174447, -187500.02235174447, -0.178, -0.756, -0.636, 192.0, 0.0, 0.0, 0.0, 0.0, 0.0, 0.0, 0.0, 0.0, 0.0, 1.6776148100250895E9, 0.0, 2023-02-28 12:06:50.025
44.0, 27015.34652892906, -4248.485475598035, 15276.389154957433, -2992.8985825656155, 15503.125250712068, 7568.971224900631, -187500.02235174447, -187500.02235174447, -0.176, -0.758, -0.636, 192.0, 250.0, 128.0, 232.0, 80.0, 236.0, 32.0, 0.0, 0.0, 0.0, 1.6776148100291145E9, 0.0, 2023-02-28 12:06:50.029
45.0, 27024.93542730039, -4250.720650043565, 15456.63362224503, -2991.1774982425572, 15606.703234517961, 7557.907111395253, -187500.02235174447, -187500.02235174447, -0.176, -0.758, -0.636, 192.0, 0.0, 0.0, 0.0, 0.0, 0.0, 0.0, 0.0, 0.0, 0.0, 1.6776148100330904E9, 0.0, 2023-02-28 12:06:50.033
46.0, 26910.47214394476, -4255.682737312643, 14720.143642442661, -2985.8354313177388, 15211.3902820814, 7224.933174244545, -187500.02235174447, -187500.02235174447, -0.176, -0.758, -0.636, 192.0, 0.0, 0.0, 0.0, 0.0, 0.0, 0.0, 0.0, 0.0, 0.0, 1.6776148100381317E9, 0.0, 2023-02-28 12:06:50.038
47.0, 26870.574280092038, -4250.497132599012, 14453.174406668473, -2988.49528890792, 15061.253614575102, 7183.9177231690555, -187500.02235174447, -187500.02235174447, -0.176, -0.758, -0.636, 192.0, 0.0, 0.0, 0.0, 0.0, 0.0, 0.0, 0.0, 0.0, 0.0, 1.677614810041112E9, 0.0, 2023-02-28 12:06:50.041
48.0, 26985.23872914776, -4249.938338987629, 15146.011429549628, -2996.474861678465, 15419.485022960309, 7512.913049806721, -187500.02235174447, -187500.02235174447, -0.176, -0.758, -0.636, 192.0, 0.0, 0.0, 0.0, 0.0, 0.0, 0.0, 0.0, 0.0, 0.0, 1.677614810044132E9, 0.0, 2023-02-28 12:06:50.044
49.0, 27053.07627356962, -4249.513655842979, 15512.82590780567, -2993.21150698799, 15622.170641681034, 7596.754443258577, -187500.02235174447, -187500.02235174447, -0.176, -0.758, -0.636, 192.0, 0.0, 0.0, 0.0, 0.0, 0.0, 0.0, 0.0, 0.0, 0.0, 1.6776148100481088E9, 0.0, 2023-02-28 12:06:50.048
50.0, 26931.594542455023, -4247.41259186418, 14851.41543762868, -2983.756719083395, 15276.500913679709, 7274.062308557309, -187500.02235174447, -187500.02235174447, -0.176, -0.758, -0.636, 192.0, 0.0, 0.0, 0.0, 0.0, 0.0, 0.0, 0.0, 0.0, 0.0, 1.6776148100530634E9, 0.0, 2023-02-28 12:06:50.053
51.0, 26887.78512332262, -4251.726478544054, 14413.544763749214, -2987.9141435520824, 15030.11763454886, 7148.2890425072965, -187500.02235174447, -187500.02235174447, -0.176, -0.758, -0.636, 192.0, 0.0, 0.0, 0.0, 0.0, 0.0, 0.0, 0.0, 0.0, 0.0, 1.677614810057092E9, 0.0, 2023-02-28 12:06:50.057
52.0, 26975.82864473208, -4256.822676279864, 15005.418956925745, -2999.4252919465653, 15328.356960816021, 7445.209615851595, -187500.02235174447, -187500.02235174447, -0.176, -0.758, -0.636, 192.0, 0.0, 0.0, 0.0, 0.0, 0.0, 0.0, 0.0, 0.0, 0.0, 1.6776148100611253E9, 0.0, 2023-02-28 12:06:50.061
53.0, 27052.562183447146, -4262.03063273795, 15542.151396531035, -3001.6381146476406, 15614.61575205514, 7600.889515982809, -187500.02235174447, -187500.02235174447, -0.176, -0.758, -0.636, 192.0, 0.0, 0.0, 0.0, 0.0, 0.0, 0.0, 0.0, 0.0, 0.0, 1.6776148100650806E9, 0.0, 2023-02-28 12:06:50.065
54.0, 26973.213490630806, -4261.337728659836, 15002.714395846653, -2993.9044110661043, 15331.575612017587, 7309.981561896988, -187500.02235174447, -187500.02235174447, -0.17, -0.758, -0.64, 192.0, 250.0, 176.0, 232.0, 80.0, 236.0, 0.0, 0.0, 0.0, 0.0, 1.6776148100690813E9, 0.0, 2023-02-28 12:06:50.069
55.0, 26944.782071683654, -4266.858609540297, 14410.37081603656, -2991.1551464981017, 15017.488898931611, 7116.571917125216, -187500.02235174447, -187500.02235174447, -0.17, -0.758, -0.64, 192.0, 0.0, 0.0, 0.0, 0.0, 0.0, 0.0, 0.0, 0.0, 0.0, 1.6776148100720904E9, 0.0, 2023-02-28 12:06:50.072
56.0, 26935.439042501337, -4257.157952446693, 14854.723495808066, -2996.0054750449035, 15255.870253547462, 7364.385707901205, -187500.02235174447, -187500.02235174447, -0.17, -0.758, -0.64, 192.0, 0.0, 0.0, 0.0, 0.0, 0.0, 0.0, 0.0, 0.0, 0.0, 1.6776148100781896E9, 0.0, 2023-02-28 12:06:50.078
57.0, 26974.599298787034, -4248.708993042587, 15520.246686964832, -2996.564268656286, 15606.680882773506, 7604.331684628926, -187500.02235174447, -187500.02235174447, -0.17, -0.758, -0.64, 192.0, 0.0, 0.0, 0.0, 0.0, 0.0, 0.0, 0.0, 0.0, 0.0, 1.6776148100811312E9, 0.0, 2023-02-28 12:06:50.081
58.0, 26936.601333213013, -4245.311527885381, 15140.08821726897, -2988.182364485546, 15402.900028574471, 7376.813277818356, -187500.02235174447, -187500.02235174447, -0.17, -0.758, -0.64, 192.0, 0.0, 0.0, 0.0, 0.0, 0.0, 0.0, 0.0, 0.0, 0.0, 1.677614810085126E9, 0.0, 2023-02-28 12:06:50.085
59.0, 26765.9681160412, -4240.528254571946, 14438.869290217077, -2982.817945816272, 15033.537451450522, 7118.337704937185, -187500.02235174447, -187500.02235174447, -0.17, -0.758, -0.64, 192.0, 0.0, 0.0, 0.0, 0.0, 0.0, 0.0, 0.0, 0.0, 0.0, 1.6776148100891683E9, 0.0, 2023-02-28 12:06:50.089
60.0, 26837.82897446501, -4231.36403934527, 14718.601372075245, -2989.4564139194986, 15172.319432773524, 7308.662808974124, -187500.02235174447, -187500.02235174447, -0.17, -0.758, -0.64, 192.0, 0.0, 0.0, 0.0, 0.0, 0.0, 0.0, 0.0, 0.0, 0.0, 1.677614810093285E9, 0.0, 2023-02-28 12:06:50.093
61.0, 26972.09590340804, -4238.717763271065, 15467.317756094666, -2996.564268656286, 15561.060972340223, 7599.011969448563, -187500.02235174447, -187500.02235174447, -0.17, -0.758, -0.64, 192.0, 0.0, 0.0, 0.0, 0.0, 0.0, 0.0, 0.0, 0.0, 0.0, 1.6776148100972254E9, 0.0, 2023-02-28 12:06:50.097
62.0, 26885.9969837662, -4237.644879537211, 15273.371669455966, -2988.629399374652, 15462.445075803409, 7431.9773831340535, -187500.02235174447, -187500.02235174447, -0.17, -0.758, -0.64, 192.0, 0.0, 0.0, 0.0, 0.0, 0.0, 0.0, 0.0, 0.0, 0.0, 1.677614810100124E9, 0.0, 2023-02-28 12:06:50.100
63.0, 26794.243072777164, -4226.960745687574, 14510.35016898515, -2981.9685795269706, 15049.854224902896, 7128.373638197618, -187500.02235174447, -187500.02235174447, -0.17, -0.758, -0.64, 192.0, 0.0, 0.0, 0.0, 0.0, 0.0, 0.0, 0.0, 0.0, 0.0, 1.6776148101051753E9, 0.0, 2023-02-28 12:06:50.105
64.0, 26884.65587909888, -4233.912138213174, 14598.438393883514, -2990.149317997613, 15087.718080010187, 7244.62506110967, -187500.02235174447, -187500.02235174447, -0.17400000000000002, -0.758, -0.638, 192.0, 250.0, 144.0, 232.0, 80.0, 236.0, 16.0, 0.0, 0.0, 0.0, 1.6776148101091955E9, 0.0, 2023-02-28 12:06:50.109
65.0, 27059.111244572552, -4241.26586213897, 15374.155685204947, -2996.944248312026, 15493.06696570718, 7573.799201702977, -187500.02235174447, -187500.02235174447, -0.17400000000000002, -0.758, -0.638, 192.0, 0.0, 0.0, 0.0, 0.0, 0.0, 0.0, 0.0, 0.0, 0.0, 1.6776148101131902E9, 0.0, 2023-02-28 12:06:50.113
66.0, 26995.945214741852, -4235.2532428804925, 15378.871903285017, -2989.8140418307835, 15501.784146044749, 7491.388319896259, -187500.02235174447, -187500.02235174447, -0.17400000000000002, -0.758, -0.638, 192.0, 0.0, 0.0, 0.0, 0.0, 0.0, 0.0, 0.0, 0.0, 0.0, 1.677614810117201E9, 0.0, 2023-02-28 12:06:50.117
67.0, 26703.80791471099, -4220.769312473454, 14601.388824151616, -2978.7946318143167, 15100.458574349712, 7152.357059998162, -187500.02235174447, -187500.02235174447, -0.17400000000000002, -0.758, -0.638, 192.0, 0.0, 0.0, 0.0, 0.0, 0.0, 0.0, 0.0, 0.0, 0.0, 1.6776148101211596E9, 0.0, 2023-02-28 12:06:50.121
68.0, 26738.095490705433, -4222.624507263245, 14498.01200604582, -2985.3213411952665, 15037.02432358555, 7178.218028332953, -187500.02235174447, -187500.02235174447, -0.17400000000000002, -0.758, -0.638, 192.0, 0.0, 0.0, 0.0, 0.0, 0.0, 0.0, 0.0, 0.0, 0.0, 1.6776148101252317E9, 0.0, 2023-02-28 12:06:50.125
69.0, 26901.46439092927, -4226.871338709752, 15254.97618376925, -2995.2008122445122, 15427.665761430952, 7519.395055698759, -187500.02235174447, -187500.02235174447, -0.17400000000000002, -0.758, -0.638, 192.0, 0.0, 0.0, 0.0, 0.0, 0.0, 0.0, 0.0, 0.0, 0.0, 1.6776148101281848E9, 0.0, 2023-02-28 12:06:50.128
70.0, 26872.83180628202, -4231.45344632309, 15464.143808382012, -2991.5798296427524, 15540.050332552235, 7528.045180802964, -187500.02235174447, -187500.02235174447, -0.17400000000000002, -0.758, -0.638, 192.0, 0.0, 0.0, 0.0, 0.0, 0.0, 0.0, 0.0, 0.0, 0.0, 1.6776148101321683E9, 0.0, 2023-02-28 12:06:50.132
71.0, 26749.450176888728, -4235.141484158216, 14729.82194779181, -2982.6838353495405, 15153.879243597896, 7190.153859872086, -187500.02235174447, -187500.02235174447, -0.17400000000000002, -0.758, -0.638, 192.0, 0.0, 0.0, 0.0, 0.0, 0.0, 0.0, 0.0, 0.0, 0.0, 1.6776148101371555E9, 0.0, 2023-02-28 12:06:50.137
72.0, 26675.398847508295, -4221.059885151373, 14428.229859856352, -2983.01911151637, 14987.649320083776, 7145.338612239196, -187500.02235174447, -187500.02235174447, -0.17400000000000002, -0.758, -0.638, 192.0, 0.0, 0.0, 0.0, 0.0, 0.0, 0.0, 0.0, 0.0, 0.0, 1.6776148101413069E9, 0.0, 2023-02-28 12:06:50.141
73.0, 26863.913460244356, -4220.724608984543, 15109.51103085411, -2991.0657395202807, 15343.712609256818, 7475.228008655073, -187500.02235174447, -187500.02235174447, -0.17400000000000002, -0.758, -0.638, 192.0, 0.0, 0.0, 0.0, 0.0, 0.0, 0.0, 0.0, 0.0, 0.0, 1.677614810145192E9, 0.0, 2023-02-28 12:06:50.145
74.0, 26738.34135989444, -4214.935507170619, 15508.713186825895, -2988.0035505299034, 15563.094981085656, 7560.745782941078, -187500.02235174447, -187500.02235174447, -0.182, -0.758, -0.64, 192.0, 250.0, 80.0, 232.0, 80.0, 236.0, 0.0, 0.0, 0.0, 0.0, 1.677614810149171E9, 0.0, 2023-02-28 12:06:50.149
75.0, 26532.81706962789, -4218.042399649907, 14863.351269167813, -2981.476841148954, 15222.946133964793, 7230.990496991933, -187500.02235174447, -187500.02235174447, -0.182, -0.758, -0.64, 192.0, 0.0, 0.0, 0.0, 0.0, 0.0, 0.0, 0.0, 0.0, 0.0, 1.6776148101521728E9, 0.0, 2023-02-28 12:06:50.152
76.0, 26442.56072551736, -4220.344629328803, 14391.7965163942, -2981.4544894044984, 14963.285918627493, 7113.777949068302, -187500.02235174447, -187500.02235174447, -0.182, -0.758, -0.64, 192.0, 0.0, 0.0, 0.0, 0.0, 0.0, 0.0, 0.0, 0.0, 0.0, 1.6776148101562247E9, 0.0, 2023-02-28 12:06:50.156
77.0, 26640.99951279158, -4223.362114830269, 14964.805837250453, -2992.3844924431437, 15253.523320379654, 7409.446824723104, -187500.02235174447, -187500.02235174447, -0.182, -0.758, -0.64, 192.0, 0.0, 0.0, 0.0, 0.0, 0.0, 0.0, 0.0, 0.0, 0.0, 1.67761481016023E9, 0.0, 2023-02-28 12:06:50.160
78.0, 26742.38702564085, -4228.525367799445, 15527.958038801915, -2995.245515733423, 15559.36223976162, 7570.602902245868, -187500.02235174447, -187500.02235174447, -0.182, -0.758, -0.64, 192.0, 0.0, 0.0, 0.0, 0.0, 0.0, 0.0, 0.0, 0.0, 0.0, 1.677614810165222E9, 0.0, 2023-02-28 12:06:50.165
79.0, 26559.92973565218, -4224.412646819669, 15010.40339593928, -2984.4496231615094, 15291.409527231399, 7291.116689576708, -187500.02235174447, -187500.02235174447, -0.182, -0.758, -0.64, 192.0, 0.0, 0.0, 0.0, 0.0, 0.0, 0.0, 0.0, 0.0, 0.0, 1.6776148101692424E9, 0.0, 2023-02-28 12:06:50.169
80.0, 26407.803762889358, -4226.960745687574, 14395.484554229326, -2982.6838353495405, 14957.586223791388, 7084.2512946428415, -187500.02235174447, -187500.02235174447, -0.182, -0.758, -0.64, 192.0, 0.0, 0.0, 0.0, 0.0, 0.0, 0.0, 0.0, 0.0, 0.0, 1.6776148101732106E9, 0.0, 2023-02-28 12:06:50.173
81.0, 26296.804999924305, -4220.769312473454, 14817.284323845426, -2990.68575986454, 15179.024956110115, 7326.477149305004, -187500.02235174447, -187500.02235174447, -0.182, -0.758, -0.64, 192.0, 0.0, 0.0, 0.0, 0.0, 0.0, 0.0, 0.0, 0.0, 0.0, 1.6776148101772687E9, 0.0, 2023-02-28 12:06:50.177
82.0, 26302.482343015952, -4206.531251255423, 15502.834678034149, -2992.8315273322496, 15545.459454710419, 7568.50183826707, -187500.02235174447, -187500.02235174447, -0.182, -0.758, -0.64, 192.0, 0.0, 0.0, 0.0, 0.0, 0.0, 0.0, 0.0, 0.0, 0.0, 1.6776148101802711E9, 0.0, 2023-02-28 12:06:50.180
83.0, 26340.390901612154, -4208.140576856205, 15152.493435441665, -2985.9695417844705, 15352.340382616567, 7347.376030370717, -187500.02235174447, -187500.02235174447, -0.182, -0.758, -0.64, 192.0, 0.0, 0.0, 0.0, 0.0, 0.0, 0.0, 0.0, 0.0, 0.0, 1.6776148101842728E9, 0.0, 2023-02-28 12:06:50.184
84.0, 26095.862817271092, -4202.887916909208, 14434.175423881463, -2979.6439981036187, 14964.850540739364, 7086.5982278106485, -187500.02235174447, -187500.02235174447, -0.176, -0.758, -0.642, 192.0, 250.0, 128.0, 232.0, 80.0, 235.0, 240.0, 0.0, 0.0, 0.0, 1.6776148101882777E9, 0.0, 2023-02-28 12:06:50.188
85.0, 26143.807309127726, -4211.448635035591, 14684.38085131417, -2987.9141435520824, 15090.713213767198, 7270.597788166737, -187500.02235174447, -187500.02235174447, -0.176, -0.758, -0.642, 192.0, 0.0, 0.0, 0.0, 0.0, 0.0, 0.0, 0.0, 0.0, 0.0, 1.6776148101932547E9, 0.0, 2023-02-28 12:06:50.193
86.0, 26066.24675586781, -4201.367998286248, 15438.349895280588, -2990.372835442166, 15501.091241966635, 7565.2831870655045, -187500.02235174447, -187500.02235174447, -0.176, -0.758, -0.642, 192.0, 0.0, 0.0, 0.0, 0.0, 0.0, 0.0, 0.0, 0.0, 0.0, 1.6776148101972196E9, 0.0, 2023-02-28 12:06:50.197
87.0, 26001.270234736236, -4193.120204582239, 15274.913939823384, -2981.9685795269706, 15415.52876419172, 7409.692693912112, -187500.02235174447, -187500.02235174447, -0.176, -0.758, -0.642, 192.0, 0.0, 0.0, 0.0, 0.0, 0.0, 0.0, 0.0, 0.0, 0.0, 1.677614810201232E9, 0.0, 2023-02-28 12:06:50.201
88.0, 25862.465901668776, -4196.741187183999, 14507.10916603913, -2978.63816960313, 15002.043843512994, 7093.661379058526, -187500.02235174447, -187500.02235174447, -0.176, -0.758, -0.642, 192.0, 0.0, 0.0, 0.0, 0.0, 0.0, 0.0, 0.0, 0.0, 0.0, 1.6776148102053096E9, 0.0, 2023-02-28 12:06:50.205
89.0, 25920.200457596835, -4202.172661086638, 14564.240224866895, -2985.6566173620963, 15024.909678090773, 7198.915743698567, -187500.02235174447, -187500.02235174447, -0.176, -0.758, -0.642, 192.0, 0.0, 0.0, 0.0, 0.0, 0.0, 0.0, 0.0, 0.0, 0.0, 1.677614810209345E9, 0.0, 2023-02-28 12:06:50.209
90.0, 26056.188470862922, -4206.419492533147, 15342.393856333954, -2993.2562104769004, 15435.019485356748, 7528.961602325631, -187500.02235174447, -187500.02235174447, -0.176, -0.758, -0.642, 192.0, 0.0, 0.0, 0.0, 0.0, 0.0, 0.0, 0.0, 0.0, 0.0, 1.6776148102132852E9, 0.0, 2023-02-28 12:06:50.213
91.0, 25978.382048413998, -4197.92582964013, 15385.778592321705, -2987.4894604074316, 15461.640413003019, 7457.078392157364, -187500.02235174447, -187500.02235174447, -0.176, -0.758, -0.642, 192.0, 0.0, 0.0, 0.0, 0.0, 0.0, 0.0, 0.0, 0.0, 0.0, 1.6776148102162836E9, 0.0, 2023-02-28 12:06:50.216
92.0, 25883.29772750112, -4202.105605853272, 14615.962161536476, -2980.180439970546, 15045.83091090094, 7120.4611206604395, -187500.02235174447, -187500.02235174447, -0.176, -0.758, -0.642, 192.0, 0.0, 0.0, 0.0, 0.0, 0.0, 0.0, 0.0, 0.0, 0.0, 1.6776148102222874E9, 0.0, 2023-02-28 12:06:50.222
93.0, 25667.536338274043, -4197.478794751024, 14471.972223755387, -2981.789765571328, 14970.952566975662, 7149.116057052142, -187500.02235174447, -187500.02235174447, -0.176, -0.758, -0.642, 192.0, 0.0, 0.0, 0.0, 0.0, 0.0, 0.0, 0.0, 0.0, 0.0, 1.6776148102382762E9, 0.0, 2023-02-28 12:06:50.238
94.0, 25748.89668809136, -4185.520611467435, 15217.022921684138, -2987.2882947073335, 15366.600795579052, 7494.226991442084, -187500.02235174447, -187500.02235174447, -0.168, -0.756, -0.64, 192.0, 250.0, 192.0, 232.0, 96.0, 236.0, 0.0, 0.0, 0.0, 0.0, 1.6776148102424128E9, 0.0, 2023-02-28 12:06:50.242
95.0, 25752.56237418203, -4171.282550249404, 15460.72399148035, -2982.4826696494424, 15501.49357336683, 7513.673009118201, -187500.02235174447, -187500.02235174447, -0.168, -0.756, -0.64, 192.0, 0.0, 0.0, 0.0, 0.0, 0.0, 0.0, 0.0, 0.0, 0.0, 1.677614810245373E9, 0.0, 2023-02-28 12:06:50.245
96.0, 25531.23540058558, -4163.302977478859, 14735.812215305832, -2972.0667567332694, 15115.389539645856, 7174.194714330997, -187500.02235174447, -187500.02235174447, -0.168, -0.756, -0.64, 192.0, 0.0, 0.0, 0.0, 0.0, 0.0, 0.0, 0.0, 0.0, 0.0, 1.677614810248344E9, 0.0, 2023-02-28 12:06:50.248
97.0, 25520.305397546937, -4168.9803205705075, 14406.61572296807, -2974.5254486233534, 14924.5726972309, 7120.796396827269, -187500.02235174447, -187500.02235174447, -0.168, -0.756, -0.64, 192.0, 0.0, 0.0, 0.0, 0.0, 0.0, 0.0, 0.0, 0.0, 0.0, 1.6776148102523131E9, 0.0, 2023-02-28 12:06:50.252
98.0, 25626.856163365384, -4177.094003807784, 15076.184579871247, -2984.4272714170543, 15274.623367145465, 7449.18822636464, -187500.02235174447, -187500.02235174447, -0.168, -0.756, -0.64, 192.0, 0.0, 0.0, 0.0, 0.0, 0.0, 0.0, 0.0, 0.0, 0.0, 1.6776148102553124E9, 0.0, 2023-02-28 12:06:50.255
99.0, 25574.240156917593, -4162.945349567574, 15507.2603234363, -2980.8733440486603, 15511.730672327361, 7560.276396307516, -187500.02235174447, -187500.02235174447, -0.168, -0.756, -0.64, 192.0, 0.0, 0.0, 0.0, 0.0, 0.0, 0.0, 0.0, 0.0, 0.0, 1.6776148102593968E9, 0.0, 2023-02-28 12:06:50.259
100.0, 25417.21915211906, -4162.9900530564855, 14879.958615298106, -2972.9161230225714, 15181.126020088914, 7238.031296495355, -187500.02235174447, -187500.02235174447, -0.168, -0.756, -0.64, 192.0, 0.0, 0.0, 0.0, 0.0, 0.0, 0.0, 0.0, 0.0, 0.0, 1.6776148102623224E9, 0.0, 2023-02-28 12:06:50.262
101.0, 25207.626844361646, -4164.800544357365, 14379.301891243684, -2974.368986412166, 14913.28506628097, 7084.810088254224, -187500.02235174447, -187500.02235174447, -0.168, -0.756, -0.64, 192.0, 0.0, 0.0, 0.0, 0.0, 0.0, 0.0, 0.0, 0.0, 0.0, 1.6776148102653892E9, 0.0, 2023-02-28 12:06:50.265
102.0, 25320.01141548293, -4163.906474579153, 14930.920592656208, -2984.9413615395265, 15194.447659784277, 7376.8579813072665, -187500.02235174447, -187500.02235174447, -0.168, -0.756, -0.64, 192.0, 0.0, 0.0, 0.0, 0.0, 0.0, 0.0, 0.0, 0.0, 0.0, 1.677614810268313E9, 0.0, 2023-02-28 12:06:50.268
103.0, 25501.462876971113, -4165.962835069041, 15519.486727653353, -2986.9306667960486, 15503.929913512458, 7573.598036002879, -187500.02235174447, -187500.02235174447, -0.168, -0.756, -0.64, 192.0, 0.0, 0.0, 0.0, 0.0, 0.0, 0.0, 0.0, 0.0, 0.0, 1.6776148102724152E9, 0.0, 2023-02-28 12:06:50.272
104.0, 25153.625029757623, -4165.49344843548, 15026.340189735913, -2977.945265525015, 15257.770151826162, 7292.5695529663035, -187500.02235174447, -187500.02235174447, -0.168, -0.754, -0.642, 192.0, 250.0, 192.0, 232.0, 112.0, 235.0, 240.0, 0.0, 0.0, 0.0, 1.677614810275414E9, 0.0, 2023-02-28 12:06:50.275
105.0, 24908.471096571815, -4159.749050110466, 14390.969501849355, -2974.8830765346383, 14916.682531438177, 7076.629349783582, -187500.02235174447, -187500.02235174447, -0.168, -0.754, -0.642, 192.0, 0.0, 0.0, 0.0, 0.0, 0.0, 0.0, 0.0, 0.0, 0.0, 1.677614810278335E9, 0.0, 2023-02-28 12:06:50.278
106.0, 24977.29211774971, -4153.8928930631755, 14786.863599641752, -2982.728538838451, 15115.210725690215, 7317.73761722298, -187500.02235174447, -187500.02235174447, -0.168, -0.754, -0.642, 192.0, 0.0, 0.0, 0.0, 0.0, 0.0, 0.0, 0.0, 0.0, 0.0, 1.6776148102823255E9, 0.0, 2023-02-28 12:06:50.282
107.0, 25088.06736327021, -4158.877332076709, 15492.843448262627, -2988.9423237970263, 15483.276901635756, 7571.07228887943, -187500.02235174447, -187500.02235174447, -0.168, -0.754, -0.642, 192.0, 0.0, 0.0, 0.0, 0.0, 0.0, 0.0, 0.0, 0.0, 0.0, 1.677614810285335E9, 0.0, 2023-02-28 12:06:50.285
108.0, 25011.33382455514, -4167.415698458636, 15173.682889185297, -2982.9744080274595, 15311.347283285533, 7355.243844418985, -187500.02235174447, -187500.02235174447, -0.168, -0.754, -0.642, 192.0, 0.0, 0.0, 0.0, 0.0, 0.0, 0.0, 0.0, 0.0, 0.0, 1.6776148102883508E9, 0.0, 2023-02-28 12:06:50.288
109.0, 24788.039897446622, -4164.085288534795, 14443.04906643022, -2978.5264108808533, 14924.617400719811, 7074.416527082507, -187500.02235174447, -187500.02235174447, -0.168, -0.754, -0.642, 192.0, 0.0, 0.0, 0.0, 0.0, 0.0, 0.0, 0.0, 0.0, 0.0, 1.6776148102924173E9, 0.0, 2023-02-28 12:06:50.292
110.0, 24755.160481352865, -4153.088230262784, 14658.653993446113, -2983.9355330390376, 15033.917431106262, 7249.140113489642, -187500.02235174447, -187500.02235174447, -0.168, -0.754, -0.642, 192.0, 0.0, 0.0, 0.0, 0.0, 0.0, 0.0, 0.0, 0.0, 0.0, 1.677614810295434E9, 0.0, 2023-02-28 12:06:50.295
111.0, 24878.83268342408, -4151.836532573287, 15427.598706197585, -2988.49528890792, 15438.036970858215, 7556.6554137057565, -187500.02235174447, -187500.02235174447, -0.168, -0.754, -0.642, 192.0, 0.0, 0.0, 0.0, 0.0, 0.0, 0.0, 0.0, 0.0, 0.0, 1.677614810298376E9, 0.0, 2023-02-28 12:06:50.298
112.0, 24878.02802062369, -4155.34575645277, 15300.88666688045, -2982.885001049638, 15378.871903285017, 7411.793757890911, -187500.02235174447, -187500.02235174447, -0.168, -0.754, -0.642, 192.0, 0.0, 0.0, 0.0, 0.0, 0.0, 0.0, 0.0, 0.0, 0.0, 1.67761481030237E9, 0.0, 2023-02-28 12:06:50.302
113.0, 24689.915739287822, -4152.864712818231, 14523.716512169423, -2974.3242829232554, 14964.604671550354, 7098.5117076053275, -187500.02235174447, -187500.02235174447, -0.168, -0.754, -0.642, 192.0, 0.0, 0.0, 0.0, 0.0, 0.0, 0.0, 0.0, 0.0, 0.0, 1.6776148103053708E9, 0.0, 2023-02-28 12:06:50.305
114.0, 24658.958573217224, -4145.15336098115, 14546.716457213934, -2978.4146521585767, 14971.220787909126, 7197.842859964712, -187500.02235174447, -187500.02235174447, -0.168, -0.754, -0.642, 192.0, 0.0, 0.0, 0.0, 0.0, 0.0, 0.0, 0.0, 0.0, 0.0, 1.6776148103094182E9, 0.0, 2023-02-28 12:06:50.309
115.0, 24785.737667767724, -4137.799637055354, 15324.870088680995, -2984.2261057169567, 15389.153705734458, 7528.268698247516, -187500.02235174447, -187500.02235174447, -0.17, -0.754, -0.638, 192.0, 250.0, 176.0, 232.0, 112.0, 236.0, 16.0, 0.0, 0.0, 0.0, 1.6776148103135228E9, 0.0, 2023-02-28 12:06:50.313
116.0, 24722.482230959205, -4135.162131209628, 15400.106060517557, -2977.7440998249176, 15440.652124959484, 7478.200790667629, -187500.02235174447, -187500.02235174447, -0.17, -0.754, -0.638, 192.0, 0.0, 0.0, 0.0, 0.0, 0.0, 0.0, 0.0, 0.0, 0.0, 1.6776148103163657E9, 0.0, 2023-02-28 12:06:50.316
117.0, 24504.060984141946, -4121.684029303077, 14631.027237299353, -2968.021090986859, 15033.246878772603, 7141.494112192883, -187500.02235174447, -187500.02235174447, -0.17, -0.754, -0.638, 192.0, 0.0, 0.0, 0.0, 0.0, 0.0, 0.0, 0.0, 0.0, 0.0, 1.6776148103204362E9, 0.0, 2023-02-28 12:06:50.320
118.0, 24507.41374581024, -4120.05235195784, 14455.119008436086, -2970.435079388032, 14936.28501132548, 7154.055792576765, -187500.02235174447, -187500.02235174447, -0.17, -0.754, -0.638, 192.0, 0.0, 0.0, 0.0, 0.0, 0.0, 0.0, 0.0, 0.0, 0.0, 1.6776148103244E9, 0.0, 2023-02-28 12:06:50.324
119.0, 24664.054770953033, -4122.309878147827, 15193.754755706163, -2978.3923004141216, 15335.777739975185, 7489.533125106469, -187500.02235174447, -187500.02235174447, -0.17, -0.754, -0.638, 192.0, 0.0, 0.0, 0.0, 0.0, 0.0, 0.0, 0.0, 0.0, 0.0, 1.6776148103283765E9, 0.0, 2023-02-28 12:06:50.328
120.0, 24697.537684147082, -4122.689857803566, 15472.793933486217, -2975.6430358461184, 15498.096108209624, 7523.8430528453655, -187500.02235174447, -187500.02235174447, -0.17, -0.754, -0.638, 192.0, 0.0, 0.0, 0.0, 0.0, 0.0, 0.0, 0.0, 0.0, 0.0, 1.6776148103323784E9, 0.0, 2023-02-28 12:06:50.332
121.0, 24584.86254034788, -4123.315706648315, 14761.516721429434, -2967.574056097753, 15121.268048437601, 7190.511487783371, -187500.02235174447, -187500.02235174447, -0.17, -0.754, -0.638, 192.0, 0.0, 0.0, 0.0, 0.0, 0.0, 0.0, 0.0, 0.0, 0.0, 1.6776148103373709E9, 0.0, 2023-02-28 12:06:50.337
122.0, 24531.173650166234, -4115.134968177673, 14395.28338852923, -2965.987082241426, 14925.310304797926, 7118.136539237087, -187500.02235174447, -187500.02235174447, -0.17, -0.754, -0.638, 192.0, 0.0, 0.0, 0.0, 0.0, 0.0, 0.0, 0.0, 0.0, 0.0, 1.6776148103414803E9, 0.0, 2023-02-28 12:06:50.341
123.0, 24650.911945213313, -4112.788035009866, 15046.702628934698, -2973.094936978214, 15266.755553097197, 7446.908348430199, -187500.02235174447, -187500.02235174447, -0.17, -0.754, -0.638, 192.0, 0.0, 0.0, 0.0, 0.0, 0.0, 0.0, 0.0, 0.0, 0.0, 1.6776148103444264E9, 0.0, 2023-02-28 12:06:50.344
124.0, 24718.861248357447, -4115.872575744698, 15511.350692671622, -2973.1619922115797, 15519.442024164442, 7567.317195810938, -187500.02235174447, -187500.02235174447, -0.17, -0.754, -0.638, 192.0, 0.0, 0.0, 0.0, 0.0, 0.0, 0.0, 0.0, 0.0, 0.0, 1.6776148103483999E9, 0.0, 2023-02-28 12:06:50.348
125.0, 24630.415395547796, -4116.163148422617, 14903.696167909644, -2965.3835851411327, 15201.19788660978, 7245.72029658798, -187500.02235174447, -187500.02235174447, -0.17200000000000001, -0.752, -0.636, 192.0, 250.0, 160.0, 232.0, 128.0, 236.0, 32.0, 0.0, 0.0, 0.0, 1.6776148103524508E9, 0.0, 2023-02-28 12:06:50.352
126.0, 24576.927671066245, -4117.101921689739, 14377.156123775974, -2964.7353845519287, 14916.23549654907, 7091.2920941462635, -187500.02235174447, -187500.02235174447, -0.17200000000000001, -0.752, -0.636, 192.0, 0.0, 0.0, 0.0, 0.0, 0.0, 0.0, 0.0, 0.0, 0.0, 1.6776148103564837E9, 0.0, 2023-02-28 12:06:50.356
127.0, 24668.681582055284, -4117.191328667561, 14903.651464420733, -2973.139640467124, 15195.162915606847, 7379.65194936418, -187500.02235174447, -187500.02235174447, -0.17200000000000001, -0.752, -0.636, 192.0, 0.0, 0.0, 0.0, 0.0, 0.0, 0.0, 0.0, 0.0, 0.0, 1.6776148103644803E9, 0.0, 2023-02-28 12:06:50.364
128.0, 24747.583239982516, -4116.230203655983, 15519.576134631174, -2975.039538745825, 15527.980390546369, 7582.248161107083, -187500.02235174447, -187500.02235174447, -0.17200000000000001, -0.752, -0.636, 192.0, 0.0, 0.0, 0.0, 0.0, 0.0, 0.0, 0.0, 0.0, 0.0, 1.6776148103674555E9, 0.0, 2023-02-28 12:06:50.367
129.0, 24661.68548604077, -4116.923107734097, 15054.995126127616, -2967.3952421421104, 15280.97126257077, 7316.910602678133, -187500.02235174447, -187500.02235174447, -0.17200000000000001, -0.752, -0.636, 192.0, 0.0, 0.0, 0.0, 0.0, 0.0, 0.0, 0.0, 0.0, 0.0, 1.6776148103704228E9, 0.0, 2023-02-28 12:06:50.370
130.0, 24591.81393287348, -4119.225337412994, 14400.446641498405, -2966.3000066638, 14931.5240897565, 7079.646835285049, -187500.02235174447, -187500.02235174447, -0.17200000000000001, -0.752, -0.636, 192.0, 0.0, 0.0, 0.0, 0.0, 0.0, 0.0, 0.0, 0.0, 0.0, 1.6776148103744931E9, 0.0, 2023-02-28 12:06:50.374
131.0, 24710.50169593116, -4123.718038048511, 14771.329137245315, -2974.704262578996, 15123.011484505116, 7310.54035550837, -187500.02235174447, -187500.02235174447, -0.17200000000000001, -0.752, -0.636, 192.0, 0.0, 0.0, 0.0, 0.0, 0.0, 0.0, 0.0, 0.0, 0.0, 1.6776148103774357E9, 0.0, 2023-02-28 12:06:50.377
132.0, 24827.602485132516, -4124.098017704251, 15490.407108116999, -2978.9063905365933, 15508.176744958968, 7579.45419305017, -187500.02235174447, -187500.02235174447, -0.17200000000000001, -0.752, -0.636, 192.0, 0.0, 0.0, 0.0, 0.0, 0.0, 0.0, 0.0, 0.0, 0.0, 1.67761481038045E9, 0.0, 2023-02-28 12:06:50.380
133.0, 24770.51612979366, -4125.1932531825605, 15200.750851720673, -2971.8432392887166, 15361.079914698592, 7371.180638215618, -187500.02235174447, -187500.02235174447, -0.17200000000000001, -0.752, -0.636, 192.0, 0.0, 0.0, 0.0, 0.0, 0.0, 0.0, 0.0, 0.0, 0.0, 1.677614810386414E9, 0.0, 2023-02-28 12:06:50.386
134.0, 24691.726230588705, -4127.517834605913, 14457.801217770722, -2967.0823177197362, 14968.24800589657, 7090.621541812604, -187500.02235174447, -187500.02235174447, -0.17200000000000001, -0.752, -0.636, 192.0, 0.0, 0.0, 0.0, 0.0, 0.0, 0.0, 0.0, 0.0, 0.0, 1.6776148103904593E9, 0.0, 2023-02-28 12:06:50.390
135.0, 24796.935891739835, -4129.842416029264, 14644.37122873917, -2973.720785822962, 15057.36441103988, 7261.612386895703, -187500.02235174447, -187500.02235174447, -0.176, -0.764, -0.638, 192.0, 250.0, 128.0, 232.0, 32.0, 236.0, 16.0, 0.0, 0.0, 0.0, 1.6776148103934867E9, 0.0, 2023-02-28 12:06:50.393
136.0, 24955.119187250042, -4131.384686396681, 15420.110871805058, -2979.0405010033255, 15471.944567196915, 7575.922617426231, -187500.02235174447, -187500.02235174447, -0.176, -0.764, -0.638, 192.0, 0.0, 0.0, 0.0, 0.0, 0.0, 0.0, 0.0, 0.0, 0.0, 1.6776148103975093E9, 0.0, 2023-02-28 12:06:50.397
137.0, 24931.82866952761, -4128.724828806499, 15329.072216638591, -2971.5750183552527, 15432.136110322013, 7442.326240816861, -187500.02235174447, -187500.02235174447, -0.176, -0.764, -0.638, 192.0, 0.0, 0.0, 0.0, 0.0, 0.0, 0.0, 0.0, 0.0, 0.0, 1.677614810400528E9, 0.0, 2023-02-28 12:06:50.400
138.0, 24815.33137742655, -4126.981392738985, 14549.376314804116, -2963.8413147737165, 15018.025340798538, 7117.376579925607, -187500.02235174447, -187500.02235174447, -0.176, -0.764, -0.638, 192.0, 0.0, 0.0, 0.0, 0.0, 0.0, 0.0, 0.0, 0.0, 0.0, 1.6776148104044504E9, 0.0, 2023-02-28 12:06:50.404
