%OpenBCI Raw EEG Data
%Number of channels = 8
%Sample Rate = 250 Hz
%Board = OpenBCI_GUI$BoardCytonSerial
Sample Index, EXG Channel 0, EXG Channel 1, EXG Channel 2, EXG Channel 3, EXG Channel 4, EXG Channel 5, EXG Channel 6, EXG Channel 7, Accel Channel 0, Accel Channel 1, Accel Channel 2, Other, Other, Other, Other, Other, Other, Other, Analog Channel 0, Analog Channel 1, Analog Channel 2, Timestamp, Other, Timestamp (Formatted)
175.0, 27404.959786529518, -4396.543430869989, 16502.6952627534, -3415.346552770919, 15253.076285490548, 7284.5899801957585, -187500.02235174447, -187500.02235174447, 0.0, 0.0, 0.0, 192.0, 0.0, 0.0, 0.0, 0.0, 0.0, 0.0, 0.0, 0.0, 0.0, 1.6776158967562423E9, 0.0, 2023-02-28 12:24:56.756
176.0, 27353.37196032667, -4395.761119814053, 16183.333537975972, -3412.5972882029164, 15088.232170132658, 7160.940129869, -187500.02235174447, -187500.02235174447, 0.0, 0.0, 0.0, 192.0, 0.0, 0.0, 0.0, 0.0, 0.0, 0.0, 0.0, 0.0, 0.0, 1.6776158967562728E9, 0.0, 2023-02-28 12:24:56.756
177.0, 27371.70039078002, -4396.722244825631, 16238.698808991769, -3415.7935876600254, 15114.56252510101, 7217.691209041025, -187500.02235174447, -187500.02235174447, 0.0, 0.0, 0.0, 192.0, 0.0, 0.0, 0.0, 0.0, 0.0, 0.0, 0.0, 0.0, 0.0, 1.677615896756288E9, 0.0, 2023-02-28 12:24:56.756
178.0, 27425.009301305927, -4397.750425070575, 16567.04593504023, -3419.1687010727765, 15283.429954460855, 7350.6840885501015, -187500.02235174447, -187500.02235174447, 0.0, 0.0, 0.0, 192.0, 0.0, 0.0, 0.0, 0.0, 0.0, 0.0, 0.0, 0.0, 0.0, 1.677615896756303E9, 0.0, 2023-02-28 12:24:56.756
0.0, 0.0, 0.0, 0.0, 0.0, 0.0, 0.0, 0.0, 0.0, -0.192, -0.784, -0.616, 192.0, 250.0, 0.0, 231.0, 128.0, 236.0, 192.0, 0.0, 0.0, 0.0, 1.6776158968505948E9, 0.0, 2023-02-28 12:24:56.850
1.0, 26283.48336022894, -4399.739730327097, 16553.120798244574, -3359.958930010668, 15125.291362439557, 7448.182397864151, -187500.02235174447, -187500.02235174447, -0.192, -0.784, -0.616, 192.0, 0.0, 0.0, 0.0, 0.0, 0.0, 0.0, 0.0, 0.0, 0.0, 1.6776158968686652E9, 0.0, 2023-02-28 12:24:56.868
2.0, 26253.174394747544, -4398.532736126511, 16341.449778252814, -3359.8918747773023, 15016.036035542016, 7377.260312707462, -187500.02235174447, -187500.02235174447, -0.192, -0.784, -0.616, 192.0, 0.0, 0.0, 0.0, 0.0, 0.0, 0.0, 0.0, 0.0, 0.0, 1.6776158968716743E9, 0.0, 2023-02-28 12:24:56.871
3.0, 26286.120866074667, -4400.499689638578, 16482.042250876697, -3364.0492992459895, 15087.27104512108, 7457.726592746568, -187500.02235174447, -187500.02235174447, -0.192, -0.784, -0.616, 192.0, 0.0, 0.0, 0.0, 0.0, 0.0, 0.0, 0.0, 0.0, 0.0, 1.6776158968746157E9, 0.0, 2023-02-28 12:24:56.874
4.0, 26332.813660241805, -4402.578401872922, 16717.62963743563, -3365.233941702121, 15206.137622134404, 7545.188968800184, -187500.02235174447, -187500.02235174447, -0.192, -0.784, -0.616, 192.0, 0.0, 0.0, 0.0, 0.0, 0.0, 0.0, 0.0, 0.0, 0.0, 1.6776158968786368E9, 0.0, 2023-02-28 12:24:56.878
5.0, 26317.03332865636, -4403.561878628955, 16602.89813314654, -3362.1494009672883, 15148.581880161988, 7471.741136520045, -187500.02235174447, -187500.02235174447, -0.192, -0.784, -0.616, 192.0, 0.0, 0.0, 0.0, 0.0, 0.0, 0.0, 0.0, 0.0, 0.0, 1.677615896882636E9, 0.0, 2023-02-28 12:24:56.882
6.0, 26271.949860090004, -4403.5395268844995, 16355.419618537382, -3360.4506683886852, 15021.668675144754, 7380.680129609124, -187500.02235174447, -187500.02235174447, -0.192, -0.784, -0.616, 192.0, 0.0, 0.0, 0.0, 0.0, 0.0, 0.0, 0.0, 0.0, 0.0, 1.67761589688669E9, 0.0, 2023-02-28 12:24:56.886
7.0, 26272.754522890395, -4402.712512339654, 16432.35432295255, -3363.132877723322, 15058.012611629083, 7439.509921015492, -187500.02235174447, -187500.02235174447, -0.192, -0.784, -0.616, 192.0, 0.0, 0.0, 0.0, 0.0, 0.0, 0.0, 0.0, 0.0, 0.0, 1.6776158968906229E9, 0.0, 2023-02-28 12:24:56.890
8.0, 26304.87397967267, -4402.10901523936, 16694.272064479836, -3365.099831235389, 15191.273712071625, 7542.5067594655475, -187500.02235174447, -187500.02235174447, -0.184, -0.786, -0.612, 192.0, 250.0, 64.0, 231.0, 112.0, 236.0, 224.0, 0.0, 0.0, 0.0, 1.6776158968946736E9, 0.0, 2023-02-28 12:24:56.894
9.0, 26292.133485333146, -4400.67850359422, 16646.77460751231, -3361.7247178226376, 15173.057040340549, 7493.064700730408, -187500.02235174447, -187500.02235174447, -0.184, -0.786, -0.612, 192.0, 0.0, 0.0, 0.0, 0.0, 0.0, 0.0, 0.0, 0.0, 0.0, 1.6776158969006352E9, 0.0, 2023-02-28 12:24:56.900
10.0, 26256.3483424602, -4401.4831663946115, 16385.03567994066, -3360.1153922218555, 15038.276021275047, 7385.016368033454, -187500.02235174447, -187500.02235174447, -0.184, -0.786, -0.612, 192.0, 0.0, 0.0, 0.0, 0.0, 0.0, 0.0, 0.0, 0.0, 0.0, 1.6776158969036958E9, 0.0, 2023-02-28 12:24:56.903
11.0, 26267.703028643493, -4404.5900588739, 16396.993863224252, -3364.1163544793553, 15040.220623042658, 7414.341856758816, -187500.02235174447, -187500.02235174447, -0.184, -0.786, -0.612, 192.0, 0.0, 0.0, 0.0, 0.0, 0.0, 0.0, 0.0, 0.0, 0.0, 1.677615896907658E9, 0.0, 2023-02-28 12:24:56.907
12.0, 26311.288930331342, -4404.902983296273, 16665.237148432392, -3367.5361713810175, 15178.376755520912, 7526.458206946637, -187500.02235174447, -187500.02235174447, -0.184, -0.786, -0.612, 192.0, 0.0, 0.0, 0.0, 0.0, 0.0, 0.0, 0.0, 0.0, 0.0, 1.6776158969108272E9, 0.0, 2023-02-28 12:24:56.910
13.0, 26327.53864855035, -4404.9476867851845, 16688.86294232165, -3365.859790546869, 15191.117249860437, 7508.7556253380335, -187500.02235174447, -187500.02235174447, -0.184, -0.786, -0.612, 192.0, 0.0, 0.0, 0.0, 0.0, 0.0, 0.0, 0.0, 0.0, 0.0, 1.6776158969147017E9, 0.0, 2023-02-28 12:24:56.914
14.0, 26294.882749901146, -4403.763044329053, 16422.608962370035, -3362.0599939894673, 15057.275004062058, 7394.22528674904, -187500.02235174447, -187500.02235174447, -0.184, -0.786, -0.612, 192.0, 0.0, 0.0, 0.0, 0.0, 0.0, 0.0, 0.0, 0.0, 0.0, 1.6776158969186835E9, 0.0, 2023-02-28 12:24:56.918
15.0, 26275.570842691763, -4401.572573372433, 16364.226205852772, -3363.0211190010455, 15029.491785704111, 7397.265123994962, -187500.02235174447, -187500.02235174447, -0.184, -0.786, -0.612, 192.0, 0.0, 0.0, 0.0, 0.0, 0.0, 0.0, 0.0, 0.0, 0.0, 1.6776158969217324E9, 0.0, 2023-02-28 12:24:56.921
16.0, 26304.605758739206, -4402.198422217181, 16622.969999667406, -3367.424412658741, 15157.634336666386, 7514.120044007307, -187500.02235174447, -187500.02235174447, -0.184, -0.786, -0.612, 192.0, 0.0, 0.0, 0.0, 0.0, 0.0, 0.0, 0.0, 0.0, 0.0, 1.6776158969256728E9, 0.0, 2023-02-28 12:24:56.925
17.0, 26310.663081486593, -4403.897154795784, 16716.15442230158, -3368.027909759034, 15204.528296533621, 7525.452378446148, -187500.02235174447, -187500.02235174447, -0.184, -0.786, -0.612, 192.0, 0.0, 0.0, 0.0, 0.0, 0.0, 0.0, 0.0, 0.0, 0.0, 1.6776158969297209E9, 0.0, 2023-02-28 12:24:56.929
18.0, 26266.227813509442, -4402.980733273117, 16468.184169314405, -3363.9822440126236, 15082.443068318735, 7410.430301479138, -187500.02235174447, -187500.02235174447, -0.182, -0.78, -0.612, 192.0, 250.0, 80.0, 231.0, 160.0, 236.0, 224.0, 0.0, 0.0, 0.0, 1.677615896935747E9, 0.0, 2023-02-28 12:24:56.935
19.0, 26256.840080838214, -4401.751387328075, 16345.964830632787, -3363.5352091235172, 15020.64049489981, 7383.295283710395, -187500.02235174447, -187500.02235174447, -0.182, -0.78, -0.612, 192.0, 0.0, 0.0, 0.0, 0.0, 0.0, 0.0, 0.0, 0.0, 0.0, 1.6776158969387336E9, 0.0, 2023-02-28 12:24:56.938
20.0, 26298.503732502908, -4402.1313669838155, 16575.00315606632, -3366.105659735878, 15135.75197884464, 7494.986950753564, -187500.02235174447, -187500.02235174447, -0.182, -0.78, -0.612, 192.0, 0.0, 0.0, 0.0, 0.0, 0.0, 0.0, 0.0, 0.0, 0.0, 1.6776158969427261E9, 0.0, 2023-02-28 12:24:56.942
21.0, 26318.01680541239, -4403.316009439946, 16729.341951530212, -3365.8821422913247, 15214.96656119425, 7532.604936671846, -187500.02235174447, -187500.02235174447, -0.182, -0.78, -0.612, 192.0, 0.0, 0.0, 0.0, 0.0, 0.0, 0.0, 0.0, 0.0, 0.0, 1.6776158969467993E9, 0.0, 2023-02-28 12:24:56.946
22.0, 26279.57180494926, -4403.897154795784, 16517.04508269371, -3363.356395167875, 15109.086347709459, 7423.081388840841, -187500.02235174447, -187500.02235174447, -0.182, -0.78, -0.612, 192.0, 0.0, 0.0, 0.0, 0.0, 0.0, 0.0, 0.0, 0.0, 0.0, 1.6776158969497285E9, 0.0, 2023-02-28 12:24:56.949
23.0, 26256.61656339366, -4404.388893173801, 16342.90264164241, -3363.937540523713, 15018.360616965369, 7371.448859149082, -187500.02235174447, -187500.02235174447, -0.182, -0.78, -0.612, 192.0, 0.0, 0.0, 0.0, 0.0, 0.0, 0.0, 0.0, 0.0, 0.0, 1.677615896953834E9, 0.0, 2023-02-28 12:24:56.953
24.0, 26296.335613290743, -4403.763044329053, 16529.80792877769, -3366.3738806693414, 15111.545039599543, 7472.165819664696, -187500.02235174447, -187500.02235174447, -0.182, -0.78, -0.612, 192.0, 0.0, 0.0, 0.0, 0.0, 0.0, 0.0, 0.0, 0.0, 0.0, 1.6776158969577625E9, 0.0, 2023-02-28 12:24:56.957
25.0, 26331.78547999686, -4404.992390274095, 16732.560602731777, -3367.469116147651, 15218.274619373635, 7535.309497750938, -187500.02235174447, -187500.02235174447, -0.182, -0.78, -0.612, 192.0, 0.0, 0.0, 0.0, 0.0, 0.0, 0.0, 0.0, 0.0, 0.0, 1.6776158969617496E9, 0.0, 2023-02-28 12:24:56.961
26.0, 26311.892427431638, -4402.1313669838155, 16567.3588594626, -3363.244636445598, 15136.735455600674, 7445.544892018425, -187500.02235174447, -187500.02235174447, -0.182, -0.78, -0.612, 192.0, 0.0, 0.0, 0.0, 0.0, 0.0, 0.0, 0.0, 0.0, 0.0, 1.6776158969667532E9, 0.0, 2023-02-28 12:24:56.966
27.0, 26280.979964849947, -4400.969076272139, 16346.836548666544, -3361.612959100361, 15024.909678090773, 7373.79579231689, -187500.02235174447, -187500.02235174447, -0.182, -0.78, -0.612, 192.0, 0.0, 0.0, 0.0, 0.0, 0.0, 0.0, 0.0, 0.0, 0.0, 1.6776158969707637E9, 0.0, 2023-02-28 12:24:56.970
28.0, 26298.92841564756, -4400.209116960659, 16479.896483408986, -3364.742203324104, 15092.188428901247, 7454.731458989556, -187500.02235174447, -187500.02235174447, -0.184, -0.78, -0.612, 192.0, 250.0, 64.0, 231.0, 160.0, 236.0, 224.0, 0.0, 0.0, 0.0, 1.6776158969747245E9, 0.0, 2023-02-28 12:24:56.974
29.0, 26331.316093363297, -4400.477337894123, 16722.144689815606, -3366.6421016028053, 15213.066662915548, 7543.8031606439545, -187500.02235174447, -187500.02235174447, -0.184, -0.78, -0.612, 192.0, 0.0, 0.0, 0.0, 0.0, 0.0, 0.0, 0.0, 0.0, 0.0, 1.6776158969787402E9, 0.0, 2023-02-28 12:24:56.978
30.0, 26302.080011615755, -4399.650323349277, 16616.867973431108, -3363.356395167875, 15161.501188457154, 7472.612854553802, -187500.02235174447, -187500.02235174447, -0.184, -0.78, -0.612, 192.0, 0.0, 0.0, 0.0, 0.0, 0.0, 0.0, 0.0, 0.0, 0.0, 1.677615896981706E9, 0.0, 2023-02-28 12:24:56.981
31.0, 26258.739979116915, -4398.979771015617, 16364.516778530691, -3360.517723622051, 15037.158434052282, 7377.260312707462, -187500.02235174447, -187500.02235174447, -0.184, -0.78, -0.612, 192.0, 0.0, 0.0, 0.0, 0.0, 0.0, 0.0, 0.0, 0.0, 0.0, 1.6776158969858203E9, 0.0, 2023-02-28 12:24:56.985
32.0, 26269.647630411106, -4401.639628605799, 16432.466081674826, -3363.0434707455006, 15069.568463512476, 7433.050266867908, -187500.02235174447, -187500.02235174447, -0.184, -0.78, -0.612, 192.0, 0.0, 0.0, 0.0, 0.0, 0.0, 0.0, 0.0, 0.0, 0.0, 1.6776158969898133E9, 0.0, 2023-02-28 12:24:56.989
33.0, 26314.0605466438, -4403.2489542065805, 16697.513067425858, -3366.0833079914223, 15203.902447688872, 7536.069457062418, -187500.02235174447, -187500.02235174447, -0.184, -0.78, -0.612, 192.0, 0.0, 0.0, 0.0, 0.0, 0.0, 0.0, 0.0, 0.0, 0.0, 1.6776158969948633E9, 0.0, 2023-02-28 12:24:56.994
34.0, 26302.527046504863, -4403.628933862321, 16662.97962224241, -3364.138706223811, 15187.116287602938, 7494.29404667545, -187500.02235174447, -187500.02235174447, -0.184, -0.78, -0.612, 192.0, 0.0, 0.0, 0.0, 0.0, 0.0, 0.0, 0.0, 0.0, 0.0, 1.6776158969997702E9, 0.0, 2023-02-28 12:24:56.999
35.0, 26274.363848491175, -4398.8456605488855, 16397.217380668804, -3360.4283166442297, 15052.961117382183, 7386.491583167503, -187500.02235174447, -187500.02235174447, -0.184, -0.78, -0.612, 192.0, 0.0, 0.0, 0.0, 0.0, 0.0, 0.0, 0.0, 0.0, 0.0, 1.6776158970028343E9, 0.0, 2023-02-28 12:24:57.002
36.0, 26280.354116005197, -4397.750425070575, 16395.026909712185, -3362.350566667386, 15052.022344115061, 7410.653818923691, -187500.02235174447, -187500.02235174447, -0.184, -0.78, -0.612, 192.0, 0.0, 0.0, 0.0, 0.0, 0.0, 0.0, 0.0, 0.0, 0.0, 1.6776158970067542E9, 0.0, 2023-02-28 12:24:57.006
37.0, 26321.481325802964, -4397.795128559485, 16662.10790420865, -3364.9880725131125, 15185.596368979976, 7526.882890091288, -187500.02235174447, -187500.02235174447, -0.184, -0.78, -0.612, 192.0, 0.0, 0.0, 0.0, 0.0, 0.0, 0.0, 0.0, 0.0, 0.0, 1.6776158970097888E9, 0.0, 2023-02-28 12:24:57.009
38.0, 26321.50367754742, -4395.559954113955, 16696.328424969724, -3363.1775812122323, 15202.270770343635, 7514.701189363145, -187500.02235174447, -187500.02235174447, -0.18, -0.782, -0.614, 192.0, 250.0, 96.0, 231.0, 144.0, 236.0, 208.0, 0.0, 0.0, 0.0, 1.6776158970137577E9, 0.0, 2023-02-28 12:24:57.013
39.0, 26261.35513321819, -4398.309218681958, 16433.091930519575, -3361.389441655808, 15071.960100169195, 7397.600400161791, -187500.02235174447, -187500.02235174447, -0.18, -0.782, -0.614, 192.0, 0.0, 0.0, 0.0, 0.0, 0.0, 0.0, 0.0, 0.0, 0.0, 1.6776158970178435E9, 0.0, 2023-02-28 12:24:57.017
40.0, 26253.95670580348, -4402.6007536173765, 16365.075572142074, -3363.4234504012406, 15037.225489285647, 7393.755900115479, -187500.02235174447, -187500.02235174447, -0.18, -0.782, -0.614, 192.0, 0.0, 0.0, 0.0, 0.0, 0.0, 0.0, 0.0, 0.0, 0.0, 1.6776158970217988E9, 0.0, 2023-02-28 12:24:57.021
41.0, 26298.570787736273, -4404.545355384988, 16620.01956939931, -3366.7315085806263, 15165.77037164812, 7506.855727059332, -187500.02235174447, -187500.02235174447, -0.18, -0.782, -0.614, 192.0, 0.0, 0.0, 0.0, 0.0, 0.0, 0.0, 0.0, 0.0, 0.0, 1.6776158970269215E9, 0.0, 2023-02-28 12:24:57.026
42.0, 26311.221875097977, -4405.282962952014, 16721.898820626597, -3366.485639391618, 15219.280447874124, 7520.624401643801, -187500.02235174447, -187500.02235174447, -0.18, -0.782, -0.614, 192.0, 0.0, 0.0, 0.0, 0.0, 0.0, 0.0, 0.0, 0.0, 0.0, 1.6776158970307913E9, 0.0, 2023-02-28 12:24:57.030
43.0, 26281.42699973905, -4402.4219396617345, 16478.041288619195, -3361.4564968891736, 15097.396385359334, 7410.363246245772, -187500.02235174447, -187500.02235174447, -0.18, -0.782, -0.614, 192.0, 0.0, 0.0, 0.0, 0.0, 0.0, 0.0, 0.0, 0.0, 0.0, 1.6776158970337956E9, 0.0, 2023-02-28 12:24:57.033
44.0, 26264.931412331036, -4400.343227427391, 16348.982316134254, -3361.4117934002634, 15028.709474648176, 7384.7928505889, -187500.02235174447, -187500.02235174447, -0.18, -0.782, -0.614, 192.0, 0.0, 0.0, 0.0, 0.0, 0.0, 0.0, 0.0, 0.0, 0.0, 1.6776158970378363E9, 0.0, 2023-02-28 12:24:57.037
45.0, 26304.73986920594, -4400.2538204495695, 16573.684403143456, -3364.3398719239085, 15142.703371370242, 7494.986950753564, -187500.02235174447, -187500.02235174447, -0.18, -0.782, -0.614, 192.0, 0.0, 0.0, 0.0, 0.0, 0.0, 0.0, 0.0, 0.0, 0.0, 1.6776158970418265E9, 0.0, 2023-02-28 12:24:57.041
46.0, 26322.487154303453, -4402.690160595198, 16735.622791722155, -3365.479810891129, 15223.415520598355, 7538.237576274583, -187500.02235174447, -187500.02235174447, -0.18, -0.782, -0.614, 192.0, 0.0, 0.0, 0.0, 0.0, 0.0, 0.0, 0.0, 0.0, 0.0, 1.677615897045818E9, 0.0, 2023-02-28 12:24:57.045
47.0, 26287.238453297432, -4401.6619803502535, 16528.645638066013, -3362.28351143402, 15119.524612370089, 7431.910327900688, -187500.02235174447, -187500.02235174447, -0.18, -0.782, -0.614, 192.0, 0.0, 0.0, 0.0, 0.0, 0.0, 0.0, 0.0, 0.0, 0.0, 1.67761589705185E9, 0.0, 2023-02-28 12:24:57.051
48.0, 26266.652496654096, -4404.165375729248, 16346.389513777438, -3362.641139345305, 15025.714340891165, 7375.382766173216, -187500.02235174447, -187500.02235174447, -0.188, -0.782, -0.618, 192.0, 250.0, 32.0, 231.0, 144.0, 236.0, 176.0, 0.0, 0.0, 0.0, 1.67761589705484E9, 0.0, 2023-02-28 12:24:57.054
49.0, 26296.894406902124, -4407.071102508438, 16526.164594431473, -3366.776212069537, 15113.623751833888, 7471.271749886483, -187500.02235174447, -187500.02235174447, -0.188, -0.782, -0.618, 192.0, 0.0, 0.0, 0.0, 0.0, 0.0, 0.0, 0.0, 0.0, 0.0, 1.6776158970588937E9, 0.0, 2023-02-28 12:24:57.058
50.0, 26314.954616422012, -4409.038056020505, 16737.634448723133, -3367.8267440589366, 15222.476747331233, 7539.556329197447, -187500.02235174447, -187500.02235174447, -0.188, -0.782, -0.618, 192.0, 0.0, 0.0, 0.0, 0.0, 0.0, 0.0, 0.0, 0.0, 0.0, 1.6776158970619473E9, 0.0, 2023-02-28 12:24:57.061
51.0, 26272.978040334947, -4408.523965898034, 16582.267473014294, -3364.3175201794534, 15144.446807437756, 7452.317470588383, -187500.02235174447, -187500.02235174447, -0.188, -0.782, -0.618, 192.0, 0.0, 0.0, 0.0, 0.0, 0.0, 0.0, 0.0, 0.0, 0.0, 1.677615897065822E9, 0.0, 2023-02-28 12:24:57.065
52.0, 26232.208458448466, -4406.10997749686, 16356.961888904798, -3362.194104456199, 15028.553012436989, 7374.578103372825, -187500.02235174447, -187500.02235174447, -0.188, -0.782, -0.618, 192.0, 0.0, 0.0, 0.0, 0.0, 0.0, 0.0, 0.0, 0.0, 0.0, 1.6776158970698242E9, 0.0, 2023-02-28 12:24:57.069
53.0, 26257.890612827614, -4405.77470133003, 16478.60008223058, -3364.6527963462827, 15088.299225366025, 7451.691621743635, -187500.02235174447, -187500.02235174447, -0.188, -0.782, -0.618, 192.0, 0.0, 0.0, 0.0, 0.0, 0.0, 0.0, 0.0, 0.0, 0.0, 1.6776158970739267E9, 0.0, 2023-02-28 12:24:57.073
54.0, 26300.649499970616, -4407.764006586553, 16723.530497971835, -3366.8209155584477, 15213.96073269376, 7542.39500074327, -187500.02235174447, -187500.02235174447, -0.188, -0.782, -0.618, 192.0, 0.0, 0.0, 0.0, 0.0, 0.0, 0.0, 0.0, 0.0, 0.0, 1.6776158970778694E9, 0.0, 2023-02-28 12:24:57.077
55.0, 26293.362831278188, -4408.568669386944, 16629.764929981822, -3364.0269475015343, 15168.34082226048, 7477.060851700408, -187500.02235174447, -187500.02235174447, -0.188, -0.782, -0.618, 192.0, 0.0, 0.0, 0.0, 0.0, 0.0, 0.0, 0.0, 0.0, 0.0, 1.6776158970828502E9, 0.0, 2023-02-28 12:24:57.082
56.0, 26270.251127511397, -4408.322800197935, 16377.346679848039, -3362.194104456199, 15039.058332330982, 7381.685958109612, -187500.02235174447, -187500.02235174447, -0.188, -0.782, -0.618, 192.0, 0.0, 0.0, 0.0, 0.0, 0.0, 0.0, 0.0, 0.0, 0.0, 1.6776158970868895E9, 0.0, 2023-02-28 12:24:57.086
57.0, 26278.476569470953, -4408.903945553773, 16432.555488652648, -3364.876313790836, 15067.892082678329, 7432.37971453425, -187500.02235174447, -187500.02235174447, -0.188, -0.782, -0.618, 192.0, 0.0, 0.0, 0.0, 0.0, 0.0, 0.0, 0.0, 0.0, 0.0, 1.677615897089934E9, 0.0, 2023-02-28 12:24:57.089
58.0, 26317.189790867546, -4411.899079310784, 16695.568465658245, -3367.6926335922044, 15202.941322677294, 7537.656430918745, -187500.02235174447, -187500.02235174447, -0.18, -0.78, -0.612, 192.0, 250.0, 96.0, 231.0, 160.0, 236.0, 224.0, 0.0, 0.0, 0.0, 1.677615897093923E9, 0.0, 2023-02-28 12:24:57.093
59.0, 26303.44346802753, -4410.580326387922, 16670.91449152404, -3365.5915696134057, 15191.787802194096, 7497.043311243452, -187500.02235174447, -187500.02235174447, -0.18, -0.78, -0.612, 192.0, 0.0, 0.0, 0.0, 0.0, 0.0, 0.0, 0.0, 0.0, 0.0, 1.6776158970978858E9, 0.0, 2023-02-28 12:24:57.097
60.0, 26248.90521155658, -4407.316971697446, 16404.705215061334, -3362.1046974783776, 15057.967908140172, 7385.239885478007, -187500.02235174447, -187500.02235174447, -0.18, -0.78, -0.612, 192.0, 0.0, 0.0, 0.0, 0.0, 0.0, 0.0, 0.0, 0.0, 0.0, 1.677615897101944E9, 0.0, 2023-02-28 12:24:57.101
61.0, 26255.14134825961, -4406.10997749686, 16393.708156789322, -3363.4010986567855, 15051.016515614572, 7407.0328363219305, -187500.02235174447, -187500.02235174447, -0.18, -0.78, -0.612, 192.0, 0.0, 0.0, 0.0, 0.0, 0.0, 0.0, 0.0, 0.0, 0.0, 1.6776158971059341E9, 0.0, 2023-02-28 12:24:57.105
62.0, 26309.523142519374, -4405.864108307852, 16659.336287896193, -3366.418584158252, 15187.585674236498, 7520.602049899346, -187500.02235174447, -187500.02235174447, -0.18, -0.78, -0.612, 192.0, 0.0, 0.0, 0.0, 0.0, 0.0, 0.0, 0.0, 0.0, 0.0, 1.677615897110895E9, 0.0, 2023-02-28 12:24:57.110
63.0, 26305.008090139403, -4403.494823395589, 16702.296340739293, -3364.496334135096, 15212.641979770897, 7511.661352117223, -187500.02235174447, -187500.02235174447, -0.18, -0.78, -0.612, 192.0, 0.0, 0.0, 0.0, 0.0, 0.0, 0.0, 0.0, 0.0, 0.0, 1.677615897114964E9, 0.0, 2023-02-28 12:24:57.114
64.0, 26253.33085695873, -4403.181898973215, 16440.803282356654, -3361.881180033825, 15082.42071657428, 7393.331216970828, -187500.02235174447, -187500.02235174447, -0.18, -0.78, -0.612, 192.0, 0.0, 0.0, 0.0, 0.0, 0.0, 0.0, 0.0, 0.0, 0.0, 1.6776158971189687E9, 0.0, 2023-02-28 12:24:57.118
65.0, 26243.116109742656, -4405.1265007408265, 16364.7626477197, -3364.250464946087, 15042.254631788092, 7386.8939145676995, -187500.02235174447, -187500.02235174447, -0.18, -0.78, -0.612, 192.0, 0.0, 0.0, 0.0, 0.0, 0.0, 0.0, 0.0, 0.0, 0.0, 1.677615897121945E9, 0.0, 2023-02-28 12:24:57.121
66.0, 26287.841950397727, -4408.032227520016, 16616.376235053092, -3368.6537586037825, 15166.977365848705, 7501.0666252454075, -187500.02235174447, -187500.02235174447, -0.18, -0.78, -0.612, 192.0, 0.0, 0.0, 0.0, 0.0, 0.0, 0.0, 0.0, 0.0, 0.0, 1.6776158971259248E9, 0.0, 2023-02-28 12:24:57.125
67.0, 26311.378337309165, -4410.759140343564, 16727.017370106863, -3369.3019591929865, 15222.29793337559, 7518.903317320743, -187500.02235174447, -187500.02235174447, -0.18, -0.78, -0.612, 192.0, 0.0, 0.0, 0.0, 0.0, 0.0, 0.0, 0.0, 0.0, 0.0, 1.6776158971299357E9, 0.0, 2023-02-28 12:24:57.129
68.0, 26277.850720626204, -4410.557974643466, 16488.546608513192, -3366.7538603250814, 15101.710272039209, 7402.540135686414, -187500.02235174447, -187500.02235174447, -0.18, -0.786, -0.612, 192.0, 250.0, 96.0, 231.0, 112.0, 236.0, 224.0, 0.0, 0.0, 0.0, 1.6776158971339817E9, 0.0, 2023-02-28 12:24:57.133
69.0, 26262.76329311887, -4412.547279899988, 16351.485711513247, -3367.5585231254727, 15027.681294403232, 7370.375975415227, -187500.02235174447, -187500.02235174447, -0.18, -0.786, -0.612, 192.0, 0.0, 0.0, 0.0, 0.0, 0.0, 0.0, 0.0, 0.0, 0.0, 1.6776158971389613E9, 0.0, 2023-02-28 12:24:57.138
70.0, 26297.274386557867, -4414.290715967502, 16569.99636530833, -3371.1795057272325, 15136.489586411666, 7480.570075579892, -187500.02235174447, -187500.02235174447, -0.18, -0.786, -0.612, 192.0, 0.0, 0.0, 0.0, 0.0, 0.0, 0.0, 0.0, 0.0, 0.0, 1.67761589714195E9, 0.0, 2023-02-28 12:24:57.141
71.0, 26311.847723942727, -4414.782454345519, 16737.83561442323, -3371.9171132942574, 15223.72844502073, 7529.162768025729, -187500.02235174447, -187500.02235174447, -0.18, -0.786, -0.612, 192.0, 0.0, 0.0, 0.0, 0.0, 0.0, 0.0, 0.0, 0.0, 0.0, 1.6776158971459117E9, 0.0, 2023-02-28 12:24:57.145
72.0, 26264.95376407549, -4415.005971790072, 16538.703923070898, -3368.720813837149, 15123.525574627589, 7427.8646621542775, -187500.02235174447, -187500.02235174447, -0.18, -0.786, -0.612, 192.0, 0.0, 0.0, 0.0, 0.0, 0.0, 0.0, 0.0, 0.0, 0.0, 1.677615897149943E9, 0.0, 2023-02-28 12:24:57.149
73.0, 26242.110281242167, -4413.173128744737, 16349.943441145831, -3367.424412658741, 15028.173032781247, 7369.861885292756, -187500.02235174447, -187500.02235174447, -0.18, -0.786, -0.612, 192.0, 0.0, 0.0, 0.0, 0.0, 0.0, 0.0, 0.0, 0.0, 0.0, 1.6776158971539803E9, 0.0, 2023-02-28 12:24:57.153
74.0, 26277.850720626204, -4412.033189777517, 16520.643713551013, -3370.128973737833, 15115.166022201303, 7461.526389303969, -187500.02235174447, -187500.02235174447, -0.18, -0.786, -0.612, 192.0, 0.0, 0.0, 0.0, 0.0, 0.0, 0.0, 0.0, 0.0, 0.0, 1.677615897157918E9, 0.0, 2023-02-28 12:24:57.157
75.0, 26308.070279129777, -4415.274192723536, 16736.69567545601, -3373.057052261478, 15223.996665954193, 7533.007268072041, -187500.02235174447, -187500.02235174447, -0.18, -0.786, -0.612, 192.0, 0.0, 0.0, 0.0, 0.0, 0.0, 0.0, 0.0, 0.0, 0.0, 1.67761589716399E9, 0.0, 2023-02-28 12:24:57.163
76.0, 26287.283156786343, -4415.050675278982, 16590.38115625157, -3369.5701801264504, 15149.721819129209, 7450.66344149869, -187500.02235174447, -187500.02235174447, -0.18, -0.786, -0.612, 192.0, 0.0, 0.0, 0.0, 0.0, 0.0, 0.0, 0.0, 0.0, 0.0, 1.6776158971669517E9, 0.0, 2023-02-28 12:24:57.166
77.0, 26259.23171749493, -4416.168262501748, 16363.28743258565, -3368.5643516259615, 15032.509271205578, 7370.241864948495, -187500.02235174447, -187500.02235174447, -0.18, -0.786, -0.612, 192.0, 0.0, 0.0, 0.0, 0.0, 0.0, 0.0, 0.0, 0.0, 0.0, 1.677615897169998E9, 0.0, 2023-02-28 12:24:57.169
78.0, 26274.0509240688, -4417.174091002237, 16462.797398900675, -3371.939465038713, 15079.872617706373, 7435.978345391553, -187500.02235174447, -187500.02235174447, -0.18, -0.784, -0.61, 192.0, 250.0, 96.0, 231.0, 128.0, 236.0, 240.0, 0.0, 0.0, 0.0, 1.6776158971740046E9, 0.0, 2023-02-28 12:24:57.174
79.0, 26307.9585204075, -4415.900041568285, 16658.375162884615, -3372.8558865613804, 15181.349537533468, 7508.666218360212, -187500.02235174447, -187500.02235174447, -0.18, -0.784, -0.61, 192.0, 0.0, 0.0, 0.0, 0.0, 0.0, 0.0, 0.0, 0.0, 0.0, 1.6776158971779432E9, 0.0, 2023-02-28 12:24:57.177
80.0, 26295.77681967936, -4416.190614246204, 16591.766964407798, -3370.4642499046627, 15149.274784240102, 7464.521523060981, -187500.02235174447, -187500.02235174447, -0.18, -0.784, -0.61, 192.0, 0.0, 0.0, 0.0, 0.0, 0.0, 0.0, 0.0, 0.0, 0.0, 1.677615897181993E9, 0.0, 2023-02-28 12:24:57.181
81.0, 26272.083970556734, -4415.385951445813, 16440.132730022997, -3368.407889414774, 15070.17196061277, 7409.446824723104, -187500.02235174447, -187500.02235174447, -0.18, -0.784, -0.61, 192.0, 0.0, 0.0, 0.0, 0.0, 0.0, 0.0, 0.0, 0.0, 0.0, 1.6776158971860468E9, 0.0, 2023-02-28 12:24:57.186
82.0, 26288.62426145366, -4413.73192235612, 16494.112192882563, -3369.9501597821904, 15096.770536514585, 7449.858778698299, -187500.02235174447, -187500.02235174447, -0.18, -0.784, -0.61, 192.0, 0.0, 0.0, 0.0, 0.0, 0.0, 0.0, 0.0, 0.0, 0.0, 1.677615897189967E9, 0.0, 2023-02-28 12:24:57.189
83.0, 26316.139258878145, -4413.374294444835, 16654.441255860478, -3370.5536568824837, 15185.52931374661, 7510.253192216539, -187500.02235174447, -187500.02235174447, -0.18, -0.784, -0.61, 192.0, 0.0, 0.0, 0.0, 0.0, 0.0, 0.0, 0.0, 0.0, 0.0, 1.677615897193992E9, 0.0, 2023-02-28 12:24:57.193
84.0, 26313.412346054596, -4411.362637443857, 16617.4714705314, -3367.2679504475536, 15170.508941472644, 7477.843162756344, -187500.02235174447, -187500.02235174447, -0.18, -0.784, -0.61, 192.0, 0.0, 0.0, 0.0, 0.0, 0.0, 0.0, 0.0, 0.0, 0.0, 1.6776158971979945E9, 0.0, 2023-02-28 12:24:57.197
85.0, 26283.1033805732, -4409.418035676245, 16453.476721462815, -3364.8539620463807, 15083.918283452784, 7414.27480152545, -187500.02235174447, -187500.02235174447, -0.18, -0.784, -0.61, 192.0, 0.0, 0.0, 0.0, 0.0, 0.0, 0.0, 0.0, 0.0, 0.0, 1.6776158972010376E9, 0.0, 2023-02-28 12:24:57.201
86.0, 26285.852645141204, -4410.401512432279, 16465.25609079076, -3366.3068254359755, 15086.801658487519, 7435.352496546805, -187500.02235174447, -187500.02235174447, -0.18, -0.784, -0.61, 192.0, 0.0, 0.0, 0.0, 0.0, 0.0, 0.0, 0.0, 0.0, 0.0, 1.677615897206056E9, 0.0, 2023-02-28 12:24:57.206
87.0, 26306.237436084444, -4409.261573465058, 16629.831985215187, -3368.162020225766, 15170.508941472644, 7504.218221213606, -187500.02235174447, -187500.02235174447, -0.18, -0.784, -0.61, 192.0, 0.0, 0.0, 0.0, 0.0, 0.0, 0.0, 0.0, 0.0, 0.0, 1.6776158972100525E9, 0.0, 2023-02-28 12:24:57.210
88.0, 26304.382241294654, -4407.629896119821, 16635.777549240298, -3367.223246958643, 15178.28734854309, 7488.080261716875, -187500.02235174447, -187500.02235174447, -0.184, -0.782, -0.614, 192.0, 250.0, 64.0, 231.0, 144.0, 236.0, 208.0, 0.0, 0.0, 0.0, 1.6776158972140708E9, 0.0, 2023-02-28 12:24:57.214
89.0, 26286.63495619714, -4407.339323441902, 16473.190960072396, -3365.122182979844, 15093.998920202128, 7417.046417837909, -187500.02235174447, -187500.02235174447, -0.184, -0.782, -0.614, 192.0, 0.0, 0.0, 0.0, 0.0, 0.0, 0.0, 0.0, 0.0, 0.0, 1.6776158972180717E9, 0.0, 2023-02-28 12:24:57.218
90.0, 26290.367697521175, -4408.523965898034, 16445.184224269895, -3365.9939010136013, 15075.111696137394, 7423.37196151876, -187500.02235174447, -187500.02235174447, -0.184, -0.782, -0.614, 192.0, 0.0, 0.0, 0.0, 0.0, 0.0, 0.0, 0.0, 0.0, 0.0, 1.6776158972220519E9, 0.0, 2023-02-28 12:24:57.222
91.0, 26311.601854753717, -4409.127462998326, 16602.875781402086, -3368.385537670319, 15155.220348265213, 7494.070529230897, -187500.02235174447, -187500.02235174447, -0.184, -0.782, -0.614, 192.0, 0.0, 0.0, 0.0, 0.0, 0.0, 0.0, 0.0, 0.0, 0.0, 1.6776158972260144E9, 0.0, 2023-02-28 12:24:57.226
92.0, 26308.383203552152, -4410.714436854653, 16652.362543626135, -3367.6032266143834, 15183.96469163474, 7496.350407165338, -187500.02235174447, -187500.02235174447, -0.184, -0.782, -0.614, 192.0, 0.0, 0.0, 0.0, 0.0, 0.0, 0.0, 0.0, 0.0, 0.0, 1.6776158972300065E9, 0.0, 2023-02-28 12:24:57.230
93.0, 26277.62720318165, -4411.943782799695, 16498.627245262534, -3365.815087057959, 15108.505202353623, 7423.036685351931, -187500.02235174447, -187500.02235174447, -0.184, -0.782, -0.614, 192.0, 0.0, 0.0, 0.0, 0.0, 0.0, 0.0, 0.0, 0.0, 0.0, 1.677615897233987E9, 0.0, 2023-02-28 12:24:57.233
94.0, 26271.63693566763, -4412.614335133354, 16429.67211361791, -3367.2455987030985, 15072.228321102659, 7407.457519466582, -187500.02235174447, -187500.02235174447, -0.184, -0.782, -0.614, 192.0, 0.0, 0.0, 0.0, 0.0, 0.0, 0.0, 0.0, 0.0, 0.0, 1.6776158972390122E9, 0.0, 2023-02-28 12:24:57.239
95.0, 26300.20246508151, -4414.246012478592, 16572.23153975386, -3371.090098749411, 15143.105702770437, 7473.328110376372, -187500.02235174447, -187500.02235174447, -0.184, -0.782, -0.614, 192.0, 0.0, 0.0, 0.0, 0.0, 0.0, 0.0, 0.0, 0.0, 0.0, 1.6776158972420373E9, 0.0, 2023-02-28 12:24:57.242
96.0, 26323.135354892656, -4412.279058966525, 16662.242014675383, -3371.4924301496067, 15192.525409761121, 7494.696378075645, -187500.02235174447, -187500.02235174447, -0.184, -0.782, -0.614, 192.0, 0.0, 0.0, 0.0, 0.0, 0.0, 0.0, 0.0, 0.0, 0.0, 1.6776158972460651E9, 0.0, 2023-02-28 12:24:57.246
97.0, 26302.974081393968, -4411.16147174376, 16529.51735609977, -3369.547828381995, 15121.692731582252, 7428.669324954668, -187500.02235174447, -187500.02235174447, -0.184, -0.782, -0.614, 192.0, 0.0, 0.0, 0.0, 0.0, 0.0, 0.0, 0.0, 0.0, 0.0, 1.6776158972500246E9, 0.0, 2023-02-28 12:24:57.250
98.0, 26287.506674230895, -4411.094416510394, 16426.16288973843, -3369.19020047071, 15065.656908232799, 7399.857926351778, -187500.02235174447, -187500.02235174447, -0.188, -0.778, -0.614, 192.0, 250.0, 32.0, 231.0, 176.0, 236.0, 208.0, 0.0, 0.0, 0.0, 1.6776158972540493E9, 0.0, 2023-02-28 12:24:57.254
99.0, 26312.697090232028, -4408.68042810922, 16543.844824295622, -3369.9054562932797, 15126.5207083846, 7463.694508516134, -187500.02235174447, -187500.02235174447, -0.188, -0.778, -0.614, 192.0, 0.0, 0.0, 0.0, 0.0, 0.0, 0.0, 0.0, 0.0, 0.0, 1.6776158972570796E9, 0.0, 2023-02-28 12:24:57.257
100.0, 26326.801040983326, -4408.322800197935, 16666.26532867734, -3370.061918504467, 15189.865552170939, 7504.419386913703, -187500.02235174447, -187500.02235174447, -0.188, -0.778, -0.614, 192.0, 0.0, 0.0, 0.0, 0.0, 0.0, 0.0, 0.0, 0.0, 0.0, 1.6776158972620208E9, 0.0, 2023-02-28 12:24:57.262
101.0, 26302.169418593578, -4407.585192630911, 16561.03331578175, -3367.1785434697326, 15139.931755057783, 7448.204749608607, -187500.02235174447, -187500.02235174447, -0.188, -0.778, -0.614, 192.0, 0.0, 0.0, 0.0, 0.0, 0.0, 0.0, 0.0, 0.0, 0.0, 1.677615897266046E9, 0.0, 2023-02-28 12:24:57.266
102.0, 26277.62720318165, -4407.138157741804, 16425.78291008269, -3365.9939010136013, 15069.322594323468, 7403.411853720171, -187500.02235174447, -187500.02235174447, -0.188, -0.778, -0.614, 192.0, 0.0, 0.0, 0.0, 0.0, 0.0, 0.0, 0.0, 0.0, 0.0, 1.6776158972700894E9, 0.0, 2023-02-28 12:24:57.270
103.0, 26291.932319633048, -4409.753311843075, 16510.853649479588, -3368.43024115923, 15117.624714091387, 7451.423400810171, -187500.02235174447, -187500.02235174447, -0.188, -0.778, -0.614, 192.0, 0.0, 0.0, 0.0, 0.0, 0.0, 0.0, 0.0, 0.0, 0.0, 1.6776158972740183E9, 0.0, 2023-02-28 12:24:57.274
104.0, 26311.668909987082, -4413.307239211469, 16659.403343129557, -3369.413717915263, 15196.414613296345, 7504.0617590024185, -187500.02235174447, -187500.02235174447, -0.188, -0.778, -0.614, 192.0, 0.0, 0.0, 0.0, 0.0, 0.0, 0.0, 0.0, 0.0, 0.0, 1.67761589727807E9, 0.0, 2023-02-28 12:24:57.278
105.0, 26296.983813879946, -4413.463701422656, 16590.537618462757, -3366.6421016028053, 15162.507016957643, 7460.587616036847, -187500.02235174447, -187500.02235174447, -0.188, -0.778, -0.614, 192.0, 0.0, 0.0, 0.0, 0.0, 0.0, 0.0, 0.0, 0.0, 0.0, 1.6776158972820654E9, 0.0, 2023-02-28 12:24:57.282
106.0, 26286.43379049704, -4411.317933954947, 16435.81884334312, -3365.3009969354866, 15084.79000148654, 7403.724778142546, -187500.02235174447, -187500.02235174447, -0.188, -0.778, -0.614, 192.0, 0.0, 0.0, 0.0, 0.0, 0.0, 0.0, 0.0, 0.0, 0.0, 1.6776158972851558E9, 0.0, 2023-02-28 12:24:57.285
107.0, 26307.98087215196, -4408.971000787139, 16484.54564625569, -3367.0444330030004, 15108.974588987183, 7440.962784405087, -187500.02235174447, -187500.02235174447, -0.188, -0.778, -0.614, 192.0, 0.0, 0.0, 0.0, 0.0, 0.0, 0.0, 0.0, 0.0, 0.0, 1.6776158972900767E9, 0.0, 2023-02-28 12:24:57.290
108.0, 26310.238398341942, -4414.82715783443, 16646.7299040234, -3369.033738259523, 15188.792668437085, 7505.96165728112, -187500.02235174447, -187500.02235174447, -0.188, -0.778, -0.614, 192.0, 0.0, 0.0, 0.0, 0.0, 0.0, 0.0, 0.0, 0.0, 0.0, 1.6776158972941551E9, 0.0, 2023-02-28 12:24:57.294
109.0, 26282.030496839347, -4419.766893359053, 16618.678464731987, -3368.2290754591318, 15171.782990906597, 7477.23966565605, -187500.02235174447, -187500.02235174447, -0.192, -0.782, -0.616, 192.0, 250.0, 0.0, 231.0, 144.0, 236.0, 192.0, 0.0, 0.0, 0.0, 1.6776158972980816E9, 0.0, 2023-02-28 12:24:57.298
110.0, 26250.87216506865, -4418.559899158466, 16454.10257030756, -3366.3738806693414, 15085.371146842379, 7413.380731747238, -187500.02235174447, -187500.02235174447, -0.192, -0.782, -0.616, 192.0, 0.0, 0.0, 0.0, 0.0, 0.0, 0.0, 0.0, 0.0, 0.0, 1.677615897302134E9, 0.0, 2023-02-28 12:24:57.302
111.0, 26243.451385909488, -4422.426750949234, 16462.10449482256, -3368.162020225766, 15086.019347431584, 7435.151330846707, -187500.02235174447, -187500.02235174447, -0.192, -0.782, -0.616, 192.0, 0.0, 0.0, 0.0, 0.0, 0.0, 0.0, 0.0, 0.0, 0.0, 1.677615897306132E9, 0.0, 2023-02-28 12:24:57.306
112.0, 26246.379464433132, -4429.534605686022, 16626.81449971372, -3370.5089533935734, 15171.939453117784, 7504.218221213606, -187500.02235174447, -187500.02235174447, -0.192, -0.782, -0.616, 192.0, 0.0, 0.0, 0.0, 0.0, 0.0, 0.0, 0.0, 0.0, 0.0, 1.6776158973100827E9, 0.0, 2023-02-28 12:24:57.310
113.0, 26228.945103757993, -4432.976774332139, 16639.599697542155, -3369.123145237344, 15180.030784610604, 7493.109404219318, -187500.02235174447, -187500.02235174447, -0.192, -0.782, -0.616, 192.0, 0.0, 0.0, 0.0, 0.0, 0.0, 0.0, 0.0, 0.0, 0.0, 1.6776158973151686E9, 0.0, 2023-02-28 12:24:57.315
114.0, 26180.598280501163, -4436.821274378452, 16475.87316940703, -3367.469116147651, 15095.921170225283, 7422.723760929556, -187500.02235174447, -187500.02235174447, -0.192, -0.782, -0.616, 192.0, 0.0, 0.0, 0.0, 0.0, 0.0, 0.0, 0.0, 0.0, 0.0, 1.677615897319115E9, 0.0, 2023-02-28 12:24:57.319
115.0, 26160.41465525802, -4441.917472114262, 16440.758578867742, -3368.9443312817016, 15079.917321195284, 7424.891880141721, -187500.02235174447, -187500.02235174447, -0.192, -0.782, -0.616, 192.0, 0.0, 0.0, 0.0, 0.0, 0.0, 0.0, 0.0, 0.0, 0.0, 1.677615897322111E9, 0.0, 2023-02-28 12:24:57.322
116.0, 26173.98216414239, -4447.103076827893, 16597.310197032715, -3372.1629824832658, 15159.243662267168, 7492.7294245635785, -187500.02235174447, -187500.02235174447, -0.192, -0.782, -0.616, 192.0, 0.0, 0.0, 0.0, 0.0, 0.0, 0.0, 0.0, 0.0, 0.0, 1.6776158973261135E9, 0.0, 2023-02-28 12:24:57.326
117.0, 26165.823777416204, -4449.427658251245, 16653.748351782364, -3371.4030231717857, 15186.669252713831, 7499.971389767098, -187500.02235174447, -187500.02235174447, -0.192, -0.782, -0.616, 192.0, 0.0, 0.0, 0.0, 0.0, 0.0, 0.0, 0.0, 0.0, 0.0, 1.6776158973301497E9, 0.0, 2023-02-28 12:24:57.330
118.0, 26129.032806042767, -4449.271196040058, 16502.60585577558, -3368.6314068593274, 15106.13591744136, 7429.004601121498, -187500.02235174447, -187500.02235174447, -0.192, -0.782, -0.616, 192.0, 0.0, 0.0, 0.0, 0.0, 0.0, 0.0, 0.0, 0.0, 0.0, 1.6776158973331072E9, 0.0, 2023-02-28 12:24:57.333
119.0, 26109.162105222, -4452.288681541524, 16427.7275118503, -3369.748994082093, 15060.426600030256, 7415.057112581386, -187500.02235174447, -187500.02235174447, -0.188, -0.776, -0.616, 192.0, 250.0, 32.0, 231.0, 192.0, 236.0, 192.0, 0.0, 0.0, 0.0, 1.6776158973371332E9, 0.0, 2023-02-28 12:24:57.337
120.0, 26131.02211129929, -4456.1331815878375, 16568.029411796262, -3373.5711423839502, 15127.526536885089, 7483.006415725519, -187500.02235174447, -187500.02235174447, -0.188, -0.776, -0.616, 192.0, 0.0, 0.0, 0.0, 0.0, 0.0, 0.0, 0.0, 0.0, 0.0, 1.6776158973411255E9, 0.0, 2023-02-28 12:24:57.341
121.0, 26139.98516082587, -4457.317824043968, 16661.884386764097, -3373.5264388950395, 15176.655671197854, 7506.967485781609, -187500.02235174447, -187500.02235174447, -0.188, -0.776, -0.616, 192.0, 0.0, 0.0, 0.0, 0.0, 0.0, 0.0, 0.0, 0.0, 0.0, 1.677615897345085E9, 0.0, 2023-02-28 12:24:57.345
122.0, 26101.02607024027, -4459.888274656329, 16534.211222435384, -3372.1853342277213, 15109.533382598565, 7440.560453004891, -187500.02235174447, -187500.02235174447, -0.188, -0.776, -0.616, 192.0, 0.0, 0.0, 0.0, 0.0, 0.0, 0.0, 0.0, 0.0, 0.0, 1.677615897350172E9, 0.0, 2023-02-28 12:24:57.350
123.0, 26085.469256099375, -4460.424716523256, 16425.671151360413, -3372.7888313280146, 15055.084533105439, 7408.239830522518, -187500.02235174447, -187500.02235174447, -0.188, -0.776, -0.616, 192.0, 0.0, 0.0, 0.0, 0.0, 0.0, 0.0, 0.0, 0.0, 0.0, 1.677615897354138E9, 0.0, 2023-02-28 12:24:57.354
124.0, 26101.718974318384, -4463.039870624527, 16538.703923070898, -3375.8510203183914, 15112.684978566764, 7466.354366106316, -187500.02235174447, -187500.02235174447, -0.188, -0.776, -0.616, 192.0, 0.0, 0.0, 0.0, 0.0, 0.0, 0.0, 0.0, 0.0, 0.0, 1.6776158973581731E9, 0.0, 2023-02-28 12:24:57.358
125.0, 26116.672291358984, -4464.850361925407, 16665.21479668794, -3376.6556831187827, 15175.42632525281, 7508.7556253380335, -187500.02235174447, -187500.02235174447, -0.188, -0.776, -0.616, 192.0, 0.0, 0.0, 0.0, 0.0, 0.0, 0.0, 0.0, 0.0, 0.0, 1.6776158973611345E9, 0.0, 2023-02-28 12:24:57.361
126.0, 26104.915273775492, -4462.88340841334, 16565.727182117367, -3374.0405290175117, 15119.524612370089, 7456.407839823704, -187500.02235174447, -187500.02235174447, -0.188, -0.776, -0.616, 192.0, 0.0, 0.0, 0.0, 0.0, 0.0, 0.0, 0.0, 0.0, 0.0, 1.6776158973651576E9, 0.0, 2023-02-28 12:24:57.365
127.0, 26078.719029273874, -4462.905760157795, 16429.046264773162, -3372.989997028112, 15048.110788835382, 7410.407949734682, -187500.02235174447, -187500.02235174447, -0.188, -0.776, -0.616, 192.0, 0.0, 0.0, 0.0, 0.0, 0.0, 0.0, 0.0, 0.0, 0.0, 1.677615897369198E9, 0.0, 2023-02-28 12:24:57.369
128.0, 26083.68111654295, -4467.241998582125, 16511.188925646416, -3375.9851307851236, 15091.741394012142, 7456.832522968355, -187500.02235174447, -187500.02235174447, -0.188, -0.776, -0.616, 192.0, 0.0, 0.0, 0.0, 0.0, 0.0, 0.0, 0.0, 0.0, 0.0, 1.6776158973731754E9, 0.0, 2023-02-28 12:24:57.373
129.0, 26118.438079170952, -4466.213818337181, 16661.01266873034, -3377.1027180078886, 15169.704278672252, 7513.181270740184, -187500.02235174447, -187500.02235174447, -0.194, -0.784, -0.614, 192.0, 249.0, 240.0, 231.0, 128.0, 236.0, 208.0, 0.0, 0.0, 0.0, 1.6776158973781493E9, 0.0, 2023-02-28 12:24:57.378
130.0, 26102.434230140952, -4464.1798095917475, 16597.04197609925, -3374.6887296067157, 15138.14361550136, 7469.818886496889, -187500.02235174447, -187500.02235174447, -0.194, -0.784, -0.614, 192.0, 0.0, 0.0, 0.0, 0.0, 0.0, 0.0, 0.0, 0.0, 0.0, 1.6776158973822043E9, 0.0, 2023-02-28 12:24:57.382
131.0, 26076.617965295074, -4462.101097357404, 16440.35624746755, -3372.5206103945507, 15056.135065094837, 7415.571202703858, -187500.02235174447, -187500.02235174447, -0.194, -0.784, -0.614, 192.0, 0.0, 0.0, 0.0, 0.0, 0.0, 0.0, 0.0, 0.0, 0.0, 1.6776158973861797E9, 0.0, 2023-02-28 12:24:57.386
132.0, 26091.72774454686, -4461.028213623549, 16482.533989254713, -3374.264046462065, 15077.101001393916, 7454.977328178565, -187500.02235174447, -187500.02235174447, -0.194, -0.784, -0.614, 192.0, 0.0, 0.0, 0.0, 0.0, 0.0, 0.0, 0.0, 0.0, 0.0, 1.6776158973902953E9, 0.0, 2023-02-28 12:24:57.390
133.0, 26110.369099422587, -4465.185638092236, 16646.595793556666, -3377.6838633637267, 15157.276708755102, 7519.328000465393, -187500.02235174447, -187500.02235174447, -0.194, -0.784, -0.614, 192.0, 0.0, 0.0, 0.0, 0.0, 0.0, 0.0, 0.0, 0.0, 0.0, 1.6776158973942423E9, 0.0, 2023-02-28 12:24:57.394
134.0, 26101.87543652957, -4465.766783448074, 16624.75813922383, -3376.9909592856125, 15143.060999281526, 7493.601142597336, -187500.02235174447, -187500.02235174447, -0.194, -0.784, -0.614, 192.0, 0.0, 0.0, 0.0, 0.0, 0.0, 0.0, 0.0, 0.0, 0.0, 1.6776158973982432E9, 0.0, 2023-02-28 12:24:57.398
135.0, 26074.271032127268, -4465.364452047879, 16460.897500621977, -3375.4263371737406, 15055.419809272267, 7428.579917976847, -187500.02235174447, -187500.02235174447, -0.194, -0.784, -0.614, 192.0, 0.0, 0.0, 0.0, 0.0, 0.0, 0.0, 0.0, 0.0, 0.0, 1.6776158974012816E9, 0.0, 2023-02-28 12:24:57.401
136.0, 26069.01837218027, -4470.5053532726, 16462.886805878497, -3378.5332296530282, 15053.6540214603, 7445.611947251791, -187500.02235174447, -187500.02235174447, -0.194, -0.784, -0.614, 192.0, 0.0, 0.0, 0.0, 0.0, 0.0, 0.0, 0.0, 0.0, 0.0, 1.677615897405271E9, 0.0, 2023-02-28 12:24:57.405
137.0, 26095.68400331545, -4473.165210862781, 16627.082720647184, -3381.438956432218, 15140.669362624809, 7512.53307015098, -187500.02235174447, -187500.02235174447, -0.194, -0.784, -0.614, 192.0, 0.0, 0.0, 0.0, 0.0, 0.0, 0.0, 0.0, 0.0, 0.0, 1.6776158974102204E9, 0.0, 2023-02-28 12:24:57.410
138.0, 26089.11259044559, -4475.400385308312, 16646.931069723498, -3381.036625032023, 15152.649897652853, 7501.156032223229, -187500.02235174447, -187500.02235174447, -0.194, -0.784, -0.614, 192.0, 0.0, 0.0, 0.0, 0.0, 0.0, 0.0, 0.0, 0.0, 0.0, 1.6776158974142416E9, 0.0, 2023-02-28 12:24:57.414
139.0, 26057.171947618957, -4477.2108766091915, 16485.73028871182, -3378.3320639529306, 15069.233187345648, 7428.736380188034, -187500.02235174447, -187500.02235174447, -0.184, -0.782, -0.614, 192.0, 250.0, 64.0, 231.0, 144.0, 236.0, 208.0, 0.0, 0.0, 0.0, 1.677615897417292E9, 0.0, 2023-02-28 12:24:57.417
140.0, 26052.992171405815, -4475.735661475142, 16444.983058569796, -3378.0861947639223, 15047.999030113106, 7427.842310409822, -187500.02235174447, -187500.02235174447, -0.184, -0.782, -0.614, 192.0, 0.0, 0.0, 0.0, 0.0, 0.0, 0.0, 0.0, 0.0, 0.0, 1.6776158974214056E9, 0.0, 2023-02-28 12:24:57.421
141.0, 26087.68207880045, -4473.522838774066, 16599.254798800328, -3379.7178721091595, 15126.788929318063, 7498.5408781219585, -187500.02235174447, -187500.02235174447, -0.184, -0.782, -0.614, 192.0, 0.0, 0.0, 0.0, 0.0, 0.0, 0.0, 0.0, 0.0, 0.0, 1.6776158974253187E9, 0.0, 2023-02-28 12:24:57.425
142.0, 26091.59363408013, -4473.4557835407, 16661.43735187499, -3379.2708372200536, 15155.957955832238, 7509.2250119715945, -187500.02235174447, -187500.02235174447, -0.184, -0.782, -0.614, 192.0, 0.0, 0.0, 0.0, 0.0, 0.0, 0.0, 0.0, 0.0, 0.0, 1.677615897429266E9, 0.0, 2023-02-28 12:24:57.429
143.0, 26058.468348797363, -4476.585027764443, 16513.222934391848, -3378.220305230654, 15078.442106061233, 7441.096894871819, -187500.02235174447, -187500.02235174447, -0.184, -0.782, -0.614, 192.0, 0.0, 0.0, 0.0, 0.0, 0.0, 0.0, 0.0, 0.0, 0.0, 1.6776158974333956E9, 0.0, 2023-02-28 12:24:57.433
144.0, 26047.15836610298, -4480.228362110658, 16433.181337497394, -3379.226133731143, 15036.443178229712, 7421.539118473425, -187500.02235174447, -187500.02235174447, -0.184, -0.782, -0.614, 192.0, 0.0, 0.0, 0.0, 0.0, 0.0, 0.0, 0.0, 0.0, 0.0, 1.67761589743824E9, 0.0, 2023-02-28 12:24:57.438
145.0, 26074.24868038281, -4481.9047429448065, 16568.521150174278, -3382.087157021422, 15101.866734250396, 7488.572000094891, -187500.02235174447, -187500.02235174447, -0.184, -0.782, -0.614, 192.0, 0.0, 0.0, 0.0, 0.0, 0.0, 0.0, 0.0, 0.0, 0.0, 1.677615897442244E9, 0.0, 2023-02-28 12:24:57.442
146.0, 26086.139808433036, -4481.323597588968, 16669.416924645535, -3382.221267488154, 15153.767484875618, 7515.908183563732, -187500.02235174447, -187500.02235174447, -0.184, -0.782, -0.614, 192.0, 0.0, 0.0, 0.0, 0.0, 0.0, 0.0, 0.0, 0.0, 0.0, 1.6776158974452367E9, 0.0, 2023-02-28 12:24:57.445
147.0, 26064.100988400103, -4478.730795232153, 16543.218975450873, -3380.0755000204445, 15088.902722466317, 7453.166836877685, -187500.02235174447, -187500.02235174447, -0.184, -0.782, -0.614, 192.0, 0.0, 0.0, 0.0, 0.0, 0.0, 0.0, 0.0, 0.0, 0.0, 1.6776158974492886E9, 0.0, 2023-02-28 12:24:57.449
148.0, 26048.58887774812, -4478.373167320868, 16429.716817106822, -3380.321369209453, 15028.97769558164, 7417.627563193747, -187500.02235174447, -187500.02235174447, -0.184, -0.782, -0.614, 192.0, 0.0, 0.0, 0.0, 0.0, 0.0, 0.0, 0.0, 0.0, 0.0, 1.6776158974532967E9, 0.0, 2023-02-28 12:24:57.453
149.0, 26064.369209333567, -4480.161306877292, 16539.352123660105, -3382.9812267996344, 15083.918283452784, 7474.0657179433965, -187500.02235174447, -187500.02235174447, -0.186, -0.784, -0.614, 192.0, 250.0, 48.0, 231.0, 128.0, 236.0, 208.0, 0.0, 0.0, 0.0, 1.677615897457343E9, 0.0, 2023-02-28 12:24:57.457
150.0, 26082.2059014089, -4481.681225500253, 16672.233244446903, -3384.1882210002213, 15150.973516818705, 7518.456282431636, -187500.02235174447, -187500.02235174447, -0.186, -0.784, -0.614, 192.0, 0.0, 0.0, 0.0, 0.0, 0.0, 0.0, 0.0, 0.0, 0.0, 1.6776158974612253E9, 0.0, 2023-02-28 12:24:57.461
151.0, 26068.72779950235, -4479.624865010365, 16576.6124816671, -3380.410776187274, 15102.64904530633, 7465.795572494933, -187500.02235174447, -187500.02235174447, -0.186, -0.784, -0.614, 192.0, 0.0, 0.0, 0.0, 0.0, 0.0, 0.0, 0.0, 0.0, 0.0, 1.6776158974663665E9, 0.0, 2023-02-28 12:24:57.466
152.0, 26043.895011412504, -4480.653045255309, 16433.53896540868, -3379.3378924534195, 15027.21190776967, 7418.499281227503, -187500.02235174447, -187500.02235174447, -0.186, -0.784, -0.614, 192.0, 0.0, 0.0, 0.0, 0.0, 0.0, 0.0, 0.0, 0.0, 0.0, 1.6776158974704092E9, 0.0, 2023-02-28 12:24:57.470
153.0, 26058.714217986373, -4482.642350511832, 16507.858515722575, -3381.394252943308, 15065.522797766067, 7465.214427139095, -187500.02235174447, -187500.02235174447, -0.186, -0.784, -0.614, 192.0, 0.0, 0.0, 0.0, 0.0, 0.0, 0.0, 0.0, 0.0, 0.0, 1.6776158974732783E9, 0.0, 2023-02-28 12:24:57.473
154.0, 26074.31573561618, -4486.755071491608, 16660.6326890746, -3384.121165766855, 15144.156234759837, 7519.707980121134, -187500.02235174447, -187500.02235174447, -0.186, -0.784, -0.614, 192.0, 0.0, 0.0, 0.0, 0.0, 0.0, 0.0, 0.0, 0.0, 0.0, 1.677615897477243E9, 0.0, 2023-02-28 12:24:57.477
155.0, 26064.81624422267, -4485.346911590924, 16603.009891868816, -3381.394252943308, 15118.116452469403, 7477.172610422685, -187500.02235174447, -187500.02235174447, -0.186, -0.784, -0.614, 192.0, 0.0, 0.0, 0.0, 0.0, 0.0, 0.0, 0.0, 0.0, 0.0, 1.6776158974813478E9, 0.0, 2023-02-28 12:24:57.481
156.0, 26045.86196492457, -4483.1340888898485, 16446.05594230365, -3379.3378924534195, 15035.146777051305, 7421.18149056214, -187500.02235174447, -187500.02235174447, -0.186, -0.784, -0.614, 192.0, 0.0, 0.0, 0.0, 0.0, 0.0, 0.0, 0.0, 0.0, 0.0, 1.677615897485322E9, 0.0, 2023-02-28 12:24:57.485
157.0, 26055.227345851345, -4483.111737145393, 16482.154009598973, -3380.3437209539084, 15051.776474926053, 7455.357307834305, -187500.02235174447, -187500.02235174447, -0.186, -0.784, -0.614, 192.0, 0.0, 0.0, 0.0, 0.0, 0.0, 0.0, 0.0, 0.0, 0.0, 1.677615897489338E9, 0.0, 2023-02-28 12:24:57.489
158.0, 26073.153444904503, -4486.352740091413, 16645.09822667816, -3382.28832272152, 15133.986191032673, 7520.6691051327125, -187500.02235174447, -187500.02235174447, -0.186, -0.784, -0.614, 192.0, 0.0, 0.0, 0.0, 0.0, 0.0, 0.0, 0.0, 0.0, 0.0, 1.677615897495376E9, 0.0, 2023-02-28 12:24:57.495
159.0, 26071.76763674827, -4485.436318568744, 16628.982618925886, -3380.7237006096484, 15129.493490397155, 7497.7809188104775, -187500.02235174447, -187500.02235174447, -0.186, -0.778, -0.616, 192.0, 250.0, 48.0, 231.0, 176.0, 236.0, 192.0, 0.0, 0.0, 0.0, 1.677615897498323E9, 0.0, 2023-02-28 12:24:57.498
160.0, 26047.448938780897, -4482.038853411538, 16464.764352412745, -3377.929732552735, 15049.74246618062, 7428.579917976847, -187500.02235174447, -187500.02235174447, -0.186, -0.778, -0.616, 192.0, 0.0, 0.0, 0.0, 0.0, 0.0, 0.0, 0.0, 0.0, 0.0, 1.6776158975023568E9, 0.0, 2023-02-28 12:24:57.502
161.0, 26051.42754929394, -4480.988321422139, 16459.06465757664, -3378.935561053224, 15045.383876011834, 7444.516711773481, -187500.02235174447, -187500.02235174447, -0.186, -0.778, -0.616, 192.0, 0.0, 0.0, 0.0, 0.0, 0.0, 0.0, 0.0, 0.0, 0.0, 1.677615897506368E9, 0.0, 2023-02-28 12:24:57.506
162.0, 26085.849235755115, -4480.675396999764, 16622.29944733375, -3380.9248663097464, 15131.169871231303, 7514.187099240673, -187500.02235174447, -187500.02235174447, -0.186, -0.778, -0.616, 192.0, 0.0, 0.0, 0.0, 0.0, 0.0, 0.0, 0.0, 0.0, 0.0, 1.6776158975102534E9, 0.0, 2023-02-28 12:24:57.510
163.0, 26087.056229955702, -4481.033024911049, 16648.361581368637, -3380.544886654006, 15150.749999374153, 7504.888773547265, -187500.02235174447, -187500.02235174447, -0.186, -0.778, -0.616, 192.0, 0.0, 0.0, 0.0, 0.0, 0.0, 0.0, 0.0, 0.0, 0.0, 1.677615897513317E9, 0.0, 2023-02-28 12:24:57.513
164.0, 26051.740473716316, -4483.536420290044, 16489.21716084685, -3379.6731686202493, 15066.372164055369, 7434.167854090674, -187500.02235174447, -187500.02235174447, -0.186, -0.778, -0.616, 192.0, 0.0, 0.0, 0.0, 0.0, 0.0, 0.0, 0.0, 0.0, 0.0, 1.6776158975172725E9, 0.0, 2023-02-28 12:24:57.517
165.0, 26048.119491114558, -4484.631655768354, 16442.97140156882, -3380.746052354104, 15040.913527120772, 7431.128016844752, -187500.02235174447, -187500.02235174447, -0.186, -0.778, -0.616, 192.0, 0.0, 0.0, 0.0, 0.0, 0.0, 0.0, 0.0, 0.0, 0.0, 1.67761589752231E9, 0.0, 2023-02-28 12:24:57.522
166.0, 26078.316697873677, -4483.916399945784, 16595.745574920842, -3382.131860510333, 15118.89876352534, 7502.385378168271, -187500.02235174447, -187500.02235174447, -0.186, -0.778, -0.616, 192.0, 0.0, 0.0, 0.0, 0.0, 0.0, 0.0, 0.0, 0.0, 0.0, 1.6776158975253215E9, 0.0, 2023-02-28 12:24:57.525
167.0, 26089.49257010133, -4482.441184811733, 16663.5831193427, -3381.8859913213246, 15154.303926742547, 7513.784767840478, -187500.02235174447, -187500.02235174447, -0.186, -0.778, -0.616, 192.0, 0.0, 0.0, 0.0, 0.0, 0.0, 0.0, 0.0, 0.0, 0.0, 1.6776158975293539E9, 0.0, 2023-02-28 12:24:57.529
168.0, 26064.123340144557, -4483.067033656483, 16520.777824017743, -3380.768404098559, 15076.922187438273, 7442.549758261413, -187500.02235174447, -187500.02235174447, -0.186, -0.778, -0.616, 192.0, 0.0, 0.0, 0.0, 0.0, 0.0, 0.0, 0.0, 0.0, 0.0, 1.6776158975333085E9, 0.0, 2023-02-28 12:24:57.533
169.0, 26047.225421336345, -4485.905705202306, 16436.64585788797, -3381.3048459654865, 15026.966038580662, 7419.482757983537, -187500.02235174447, -187500.02235174447, -0.19, -0.786, -0.622, 192.0, 250.0, 16.0, 231.0, 112.0, 236.0, 144.0, 0.0, 0.0, 0.0, 1.6776158975373657E9, 0.0, 2023-02-28 12:24:57.537
170.0, 26071.92409895946, -4487.783251736552, 16569.19170250794, -3383.964703555668, 15094.445955091234, 7485.219238426595, -187500.02235174447, -187500.02235174447, -0.19, -0.786, -0.622, 192.0, 0.0, 0.0, 0.0, 0.0, 0.0, 0.0, 0.0, 0.0, 0.0, 1.6776158975413508E9, 0.0, 2023-02-28 12:24:57.541
171.0, 26086.139808433036, -4488.2973418590245, 16680.168113728538, -3385.283456478531, 15151.845234852462, 7518.5009859205475, -187500.02235174447, -187500.02235174447, -0.19, -0.786, -0.622, 192.0, 0.0, 0.0, 0.0, 0.0, 0.0, 0.0, 0.0, 0.0, 0.0, 1.6776158975453732E9, 0.0, 2023-02-28 12:24:57.545
172.0, 26063.76571223327, -4488.923190703773, 16568.00706005181, -3383.76353785557, 15092.970739957183, 7456.8101712238995, -187500.02235174447, -187500.02235174447, -0.19, -0.786, -0.622, 192.0, 0.0, 0.0, 0.0, 0.0, 0.0, 0.0, 0.0, 0.0, 0.0, 1.67761589754934E9, 0.0, 2023-02-28 12:24:57.549
173.0, 26037.457709009377, -4490.59957153792, 16403.364110394014, -3382.9365233107237, 15006.089509259406, 7398.628580406736, -187500.02235174447, -187500.02235174447, -0.19, -0.786, -0.622, 192.0, 0.0, 0.0, 0.0, 0.0, 0.0, 0.0, 0.0, 0.0, 0.0, 1.6776158975534716E9, 0.0, 2023-02-28 12:24:57.553
174.0, 26062.49166279932, -4492.298304116524, 16521.73894902932, -3385.775194856548, 15066.483922777645, 7467.494305073536, -187500.02235174447, -187500.02235174447, -0.19, -0.786, -0.622, 192.0, 0.0, 0.0, 0.0, 0.0, 0.0, 0.0, 0.0, 0.0, 0.0, 1.6776158975573318E9, 0.0, 2023-02-28 12:24:57.557
175.0, 26099.282634172756, -4493.974684950672, 16731.42066376456, -3387.675093135249, 15173.213502551736, 7543.669050177223, -187500.02235174447, -187500.02235174447, -0.19, -0.786, -0.622, 192.0, 0.0, 0.0, 0.0, 0.0, 0.0, 0.0, 0.0, 0.0, 0.0, 1.6776158975614028E9, 0.0, 2023-02-28 12:24:57.561
176.0, 26069.53246230274, -4500.3896356093455, 16626.702740991444, -3386.8927820793133, 15120.575144359487, 7473.998662710031, -187500.02235174447, -187500.02235174447, -0.19, -0.786, -0.622, 192.0, 0.0, 0.0, 0.0, 0.0, 0.0, 0.0, 0.0, 0.0, 0.0, 1.6776158975653508E9, 0.0, 2023-02-28 12:24:57.565
177.0, 26032.316807784657, -4499.65202804232, 16388.7684212647, -3385.641084389816, 14998.892247544796, 7384.7257953555345, -187500.02235174447, -187500.02235174447, -0.19, -0.786, -0.622, 192.0, 0.0, 0.0, 0.0, 0.0, 0.0, 0.0, 0.0, 0.0, 0.0, 1.6776158975694304E9, 0.0, 2023-02-28 12:24:57.569
178.0, 26050.756996960285, -4497.12628091887, 16458.84114013209, -3387.1610030127767, 15032.866899116863, 7441.029839638453, -187500.02235174447, -187500.02235174447, -0.19, -0.786, -0.622, 192.0, 0.0, 0.0, 0.0, 0.0, 0.0, 0.0, 0.0, 0.0, 0.0, 1.6776158975733569E9, 0.0, 2023-02-28 12:24:57.573
179.0, 26083.50230258731, -4498.2215163971805, 16708.376015231137, -3388.613866402372, 15160.294194256569, 7543.44553273267, -187500.02235174447, -187500.02235174447, -0.186, -0.784, -0.622, 192.0, 250.0, 48.0, 231.0, 128.0, 236.0, 144.0, 0.0, 0.0, 0.0, 1.677615897578356E9, 0.0, 2023-02-28 12:24:57.578
180.0, 26066.425569823456, -4498.445033841734, 16668.90283452306, -3386.356340212386, 15140.937583558272, 7501.558363623424, -187500.02235174447, -187500.02235174447, -0.186, -0.784, -0.622, 192.0, 0.0, 0.0, 0.0, 0.0, 0.0, 0.0, 0.0, 0.0, 0.0, 1.6776158975814009E9, 0.0, 2023-02-28 12:24:57.581
181.0, 26030.752185672784, -4498.422682097278, 16414.24940994375, -3384.7917181005146, 15010.693968617199, 7395.499336182993, -187500.02235174447, -187500.02235174447, -0.186, -0.784, -0.622, 192.0, 0.0, 0.0, 0.0, 0.0, 0.0, 0.0, 0.0, 0.0, 0.0, 1.6776158975854015E9, 0.0, 2023-02-28 12:24:57.585
182.0, 26046.398406791497, -4497.305094874513, 16421.87135480301, -3386.66926463476, 15016.505422175578, 7421.405008006694, -187500.02235174447, -187500.02235174447, -0.186, -0.784, -0.622, 192.0, 0.0, 0.0, 0.0, 0.0, 0.0, 0.0, 0.0, 0.0, 0.0, 1.6776158975893786E9, 0.0, 2023-02-28 12:24:57.589
183.0, 26084.016392709782, -4496.746301263131, 16678.82700906122, -3389.843212347414, 15146.816092350018, 7532.515529694025, -187500.02235174447, -187500.02235174447, -0.186, -0.784, -0.622, 192.0, 0.0, 0.0, 0.0, 0.0, 0.0, 0.0, 0.0, 0.0, 0.0, 1.6776158975933733E9, 0.0, 2023-02-28 12:24:57.593
184.0, 26081.26712814178, -4497.930943719261, 16704.88914309611, -3389.1503082692993, 15160.987098334683, 7517.025770786497, -187500.02235174447, -187500.02235174447, -0.186, -0.784, -0.622, 192.0, 0.0, 0.0, 0.0, 0.0, 0.0, 0.0, 0.0, 0.0, 0.0, 1.6776158975974886E9, 0.0, 2023-02-28 12:24:57.597
185.0, 26051.807528949685, -4493.79587099503, 16450.19101502788, -3384.992883800612, 15032.889250861319, 7408.9103828561765, -187500.02235174447, -187500.02235174447, -0.186, -0.784, -0.622, 192.0, 0.0, 0.0, 0.0, 0.0, 0.0, 0.0, 0.0, 0.0, 0.0, 1.677615897601527E9, 0.0, 2023-02-28 12:24:57.601
186.0, 26052.992171405815, -4493.214725639192, 16392.72468003329, -3385.5293256675395, 15004.904866803274, 7412.03962707992, -187500.02235174447, -187500.02235174447, -0.186, -0.784, -0.622, 192.0, 0.0, 0.0, 0.0, 0.0, 0.0, 0.0, 0.0, 0.0, 0.0, 1.6776158976064596E9, 0.0, 2023-02-28 12:24:57.606
187.0, 26083.368192120575, -4498.310923375002, 16638.81738648622, -3389.2397152471203, 15133.248583465647, 7519.931497565687, -187500.02235174447, -187500.02235174447, -0.186, -0.784, -0.622, 192.0, 0.0, 0.0, 0.0, 0.0, 0.0, 0.0, 0.0, 0.0, 0.0, 1.6776158976094615E9, 0.0, 2023-02-28 12:24:57.609
188.0, 26086.475084599864, -4500.434339098256, 16731.510070742377, -3389.217363502665, 15180.343709032979, 7530.839148859876, -187500.02235174447, -187500.02235174447, -0.186, -0.784, -0.622, 192.0, 0.0, 0.0, 0.0, 0.0, 0.0, 0.0, 0.0, 0.0, 0.0, 1.6776158976134777E9, 0.0, 2023-02-28 12:24:57.613
189.0, 26061.195261620913, -4494.868754728885, 16493.821620204642, -3384.5458489115063, 15059.912509907785, 7422.969630118565, -187500.02235174447, -187500.02235174447, -0.186, -0.778, -0.618, 192.0, 250.0, 48.0, 231.0, 176.0, 236.0, 176.0, 0.0, 0.0, 0.0, 1.6776158976174634E9, 0.0, 2023-02-28 12:24:57.617
190.0, 26042.48685151182, -4497.2827431300575, 16375.111505402507, -3385.6634361342713, 14996.411203910257, 7395.4099292051715, -187500.02235174447, -187500.02235174447, -0.186, -0.778, -0.618, 192.0, 0.0, 0.0, 0.0, 0.0, 0.0, 0.0, 0.0, 0.0, 0.0, 1.677615897621422E9, 0.0, 2023-02-28 12:24:57.621
191.0, 26077.243814139823, -4498.2215163971805, 16596.52788597678, -3389.060901291478, 15102.961969728705, 7502.497136890547, -187500.02235174447, -187500.02235174447, -0.186, -0.778, -0.618, 192.0, 0.0, 0.0, 0.0, 0.0, 0.0, 0.0, 0.0, 0.0, 0.0, 1.677615897625454E9, 0.0, 2023-02-28 12:24:57.625
192.0, 26100.042593484235, -4497.640371041342, 16746.016352893872, -3389.95497106969, 15180.14254333288, 7540.696268164667, -187500.02235174447, -187500.02235174447, -0.186, -0.778, -0.618, 192.0, 0.0, 0.0, 0.0, 0.0, 0.0, 0.0, 0.0, 0.0, 0.0, 1.677615897629423E9, 0.0, 2023-02-28 12:24:57.629
193.0, 26065.77736923425, -4496.880411729862, 16542.168443461473, -3387.00454080159, 15077.324518838468, 7439.442865782126, -187500.02235174447, -187500.02235174447, -0.186, -0.778, -0.618, 192.0, 0.0, 0.0, 0.0, 0.0, 0.0, 0.0, 0.0, 0.0, 0.0, 1.6776158976344557E9, 0.0, 2023-02-28 12:24:57.634
194.0, 26040.654008466485, -4499.137937919848, 16369.545921033136, -3386.4680989346625, 14986.39762239428, 7387.787984345911, -187500.02235174447, -187500.02235174447, -0.186, -0.778, -0.618, 192.0, 0.0, 0.0, 0.0, 0.0, 0.0, 0.0, 0.0, 0.0, 0.0, 1.6776158976375148E9, 0.0, 2023-02-28 12:24:57.637
195.0, 26077.512035073287, -4504.36824612239, 16548.739856331333, -3391.743110626115, 15077.101001393916, 7482.537029091958, -187500.02235174447, -187500.02235174447, -0.186, -0.778, -0.618, 192.0, 0.0, 0.0, 0.0, 0.0, 0.0, 0.0, 0.0, 0.0, 0.0, 1.6776158976405077E9, 0.0, 2023-02-28 12:24:57.640
196.0, 26099.416744639486, -4507.296324646035, 16748.005658150396, -3393.6206571603607, 15180.924854388817, 7544.8536926333545, -187500.02235174447, -187500.02235174447, -0.186, -0.778, -0.618, 192.0, 0.0, 0.0, 0.0, 0.0, 0.0, 0.0, 0.0, 0.0, 0.0, 1.6776158976455712E9, 0.0, 2023-02-28 12:24:57.645
197.0, 26058.557755775186, -4510.380865380867, 16591.43168824097, -3391.6537036482937, 15100.32446388298, 7453.032726410953, -187500.02235174447, -187500.02235174447, -0.186, -0.778, -0.618, 192.0, 0.0, 0.0, 0.0, 0.0, 0.0, 0.0, 0.0, 0.0, 0.0, 1.677615897649463E9, 0.0, 2023-02-28 12:24:57.649
198.0, 26034.730796185828, -4510.067940958494, 16376.944348447842, -3391.229020503643, 14987.694023572687, 7377.483830152015, -187500.02235174447, -187500.02235174447, -0.186, -0.778, -0.618, 192.0, 0.0, 0.0, 0.0, 0.0, 0.0, 0.0, 0.0, 0.0, 0.0, 1.6776158976544745E9, 0.0, 2023-02-28 12:24:57.654
199.0, 26059.96591567587, -4512.861909015406, 16502.471745308845, -3394.7605961275813, 15047.931974879739, 7452.09395314383, -187500.02235174447, -187500.02235174447, -0.182, -0.776, -0.618, 192.0, 250.0, 80.0, 231.0, 192.0, 236.0, 176.0, 0.0, 0.0, 0.0, 1.6776158976594865E9, 0.0, 2023-02-28 12:24:57.659
200.0, 26079.97072696337, -4517.958106751216, 16739.087312112726, -3395.9899420726233, 15170.419534494822, 7536.53884369598, -187500.02235174447, -187500.02235174447, -0.182, -0.776, -0.618, 192.0, 0.0, 0.0, 0.0, 0.0, 0.0, 0.0, 0.0, 0.0, 0.0, 1.6776158976624713E9, 0.0, 2023-02-28 12:24:57.662
201.0, 26052.612191750075, -4520.439150385756, 16639.845566731165, -3394.2018025161988, 15120.709254826219, 7465.281482372461, -187500.02235174447, -187500.02235174447, -0.182, -0.776, -0.618, 192.0, 0.0, 0.0, 0.0, 0.0, 0.0, 0.0, 0.0, 0.0, 0.0, 1.6776158976654968E9, 0.0, 2023-02-28 12:24:57.665
202.0, 26019.688072167406, -4520.215632941203, 16394.401060867436, -3393.352436226897, 14996.344148676892, 7370.2865684374065, -187500.02235174447, -187500.02235174447, -0.182, -0.776, -0.618, 192.0, 0.0, 0.0, 0.0, 0.0, 0.0, 0.0, 0.0, 0.0, 0.0, 1.6776158976695418E9, 0.0, 2023-02-28 12:24:57.669
203.0, 26034.86490665256, -4523.523691120588, 16457.276518020215, -3397.286343251031, 15030.765835138063, 7421.4720632400595, -187500.02235174447, -187500.02235174447, -0.182, -0.776, -0.618, 192.0, 0.0, 0.0, 0.0, 0.0, 0.0, 0.0, 0.0, 0.0, 0.0, 1.677615897673484E9, 0.0, 2023-02-28 12:24:57.673
204.0, 26068.146654146512, -4527.994040011649, 16715.573276945743, -3401.1531950417993, 15163.579900691499, 7520.53499466598, -187500.02235174447, -187500.02235174447, -0.182, -0.776, -0.618, 192.0, 0.0, 0.0, 0.0, 0.0, 0.0, 0.0, 0.0, 0.0, 0.0, 1.6776158976775424E9, 0.0, 2023-02-28 12:24:57.677
205.0, 26061.888165699027, -4524.306002176524, 16683.275006207827, -3398.158061284788, 15149.543005173566, 7480.547723835436, -187500.02235174447, -187500.02235174447, -0.182, -0.776, -0.618, 192.0, 0.0, 0.0, 0.0, 0.0, 0.0, 0.0, 0.0, 0.0, 0.0, 1.6776158976814632E9, 0.0, 2023-02-28 12:24:57.681
206.0, 26022.638502435508, -4523.3448771649455, 16424.9782472823, -3395.6546659057935, 15017.958285565173, 7375.65098710668, -187500.02235174447, -187500.02235174447, -0.182, -0.776, -0.618, 192.0, 0.0, 0.0, 0.0, 0.0, 0.0, 0.0, 0.0, 0.0, 0.0, 1.6776158976855261E9, 0.0, 2023-02-28 12:24:57.685
207.0, 26031.422738006444, -4521.556737608521, 16422.92188679241, -3397.398101973308, 15017.01951229805, 7403.680074653635, -187500.02235174447, -187500.02235174447, -0.182, -0.776, -0.618, 192.0, 0.0, 0.0, 0.0, 0.0, 0.0, 0.0, 0.0, 0.0, 0.0, 1.677615897689548E9, 0.0, 2023-02-28 12:24:57.689
208.0, 26076.1038751726, -4519.075693973982, 16684.191427730493, -3399.0744828074558, 15151.040572052072, 7519.529166165491, -187500.02235174447, -187500.02235174447, -0.182, -0.776, -0.618, 192.0, 0.0, 0.0, 0.0, 0.0, 0.0, 0.0, 0.0, 0.0, 0.0, 1.6776158976935885E9, 0.0, 2023-02-28 12:24:57.693
209.0, 26075.96976470587, -4516.996981739639, 16719.618942692156, -3396.5040321950955, 15169.547816461065, 7510.8119858279215, -187500.02235174447, -187500.02235174447, -0.182, -0.774, -0.618, 192.0, 250.0, 80.0, 231.0, 208.0, 236.0, 176.0, 0.0, 0.0, 0.0, 1.6776158976965587E9, 0.0, 2023-02-28 12:24:57.696
210.0, 26045.86196492457, -4510.470272358689, 16461.433942488904, -3392.3019042374976, 15040.891175376319, 7402.294266497406, -187500.02235174447, -187500.02235174447, -0.182, -0.774, -0.618, 192.0, 0.0, 0.0, 0.0, 0.0, 0.0, 0.0, 0.0, 0.0, 0.0, 1.677615897700544E9, 0.0, 2023-02-28 12:24:57.700
211.0, 26035.848383408593, -4510.492624103144, 16394.356357378525, -3392.7489391266035, 15005.4413086702, 7402.763653130967, -187500.02235174447, -187500.02235174447, -0.182, -0.774, -0.618, 192.0, 0.0, 0.0, 0.0, 0.0, 0.0, 0.0, 0.0, 0.0, 0.0, 1.67761589770554E9, 0.0, 2023-02-28 12:24:57.705
212.0, 26072.549947804207, -4511.096121203437, 16643.779473755298, -3395.408796716785, 15131.885127053873, 7515.72936960809, -187500.02235174447, -187500.02235174447, -0.182, -0.774, -0.618, 192.0, 0.0, 0.0, 0.0, 0.0, 0.0, 0.0, 0.0, 0.0, 0.0, 1.6776158977096467E9, 0.0, 2023-02-28 12:24:57.709
213.0, 26097.606253338607, -4505.4634816007, 16743.98234414844, -3392.905401337791, 15184.81405792404, 7536.8741198628095, -187500.02235174447, -187500.02235174447, -0.182, -0.774, -0.618, 192.0, 0.0, 0.0, 0.0, 0.0, 0.0, 0.0, 0.0, 0.0, 0.0, 1.6776158977135844E9, 0.0, 2023-02-28 12:24:57.713
214.0, 26061.083502898637, -4503.787100766552, 16506.159783143972, -3389.3067704804866, 15060.918338408273, 7426.724723187056, -187500.02235174447, -187500.02235174447, -0.182, -0.774, -0.618, 192.0, 0.0, 0.0, 0.0, 0.0, 0.0, 0.0, 0.0, 0.0, 0.0, 1.6776158977165363E9, 0.0, 2023-02-28 12:24:57.716
215.0, 26041.659836966974, -4506.2010891677255, 16379.090115915551, -3390.580819914439, 14993.863105042352, 7396.661626894668, -187500.02235174447, -187500.02235174447, -0.182, -0.774, -0.618, 192.0, 0.0, 0.0, 0.0, 0.0, 0.0, 0.0, 0.0, 0.0, 0.0, 1.6776158977205691E9, 0.0, 2023-02-28 12:24:57.720
216.0, 26073.89105247153, -4510.17969968077, 16599.09833658914, -3394.6264856608495, 15098.759841771109, 7503.950000280142, -187500.02235174447, -187500.02235174447, -0.182, -0.774, -0.618, 192.0, 0.0, 0.0, 0.0, 0.0, 0.0, 0.0, 0.0, 0.0, 0.0, 1.6776158977246084E9, 0.0, 2023-02-28 12:24:57.724
217.0, 26100.713145817896, -4508.615077568898, 16757.16987337707, -3395.0064653165896, 15177.415630509333, 7550.486332236092, -187500.02235174447, -187500.02235174447, -0.182, -0.774, -0.618, 192.0, 0.0, 0.0, 0.0, 0.0, 0.0, 0.0, 0.0, 0.0, 0.0, 1.6776158977295697E9, 0.0, 2023-02-28 12:24:57.729
218.0, 26062.603421521595, -4507.564545579498, 16554.61836512308, -3392.86069784888, 15075.491675793133, 7447.780066463955, -187500.02235174447, -187500.02235174447, -0.182, -0.774, -0.618, 192.0, 0.0, 0.0, 0.0, 0.0, 0.0, 0.0, 0.0, 0.0, 0.0, 1.677615897733605E9, 0.0, 2023-02-28 12:24:57.733
219.0, 26033.277932796234, -4508.883298502362, 16374.396249579937, -3392.905401337791, 14980.988500236095, 7389.799641346889, -187500.02235174447, -187500.02235174447, -0.18, -0.772, -0.622, 192.0, 250.0, 96.0, 231.0, 224.0, 236.0, 144.0, 0.0, 0.0, 0.0, 1.6776158977376137E9, 0.0, 2023-02-28 12:24:57.737
220.0, 26071.76763674827, -4510.716141547697, 16548.762208075786, -3396.6157909173717, 15065.947480910718, 7483.565209336903, -187500.02235174447, -187500.02235174447, -0.18, -0.772, -0.622, 192.0, 0.0, 0.0, 0.0, 0.0, 0.0, 0.0, 0.0, 0.0, 0.0, 1.6776158977416115E9, 0.0, 2023-02-28 12:24:57.741
221.0, 26099.528503361762, -4513.51010960461, 16756.70048674351, -3397.934543840235, 15173.168799062825, 7553.414410759737, -187500.02235174447, -187500.02235174447, -0.18, -0.772, -0.622, 192.0, 0.0, 0.0, 0.0, 0.0, 0.0, 0.0, 0.0, 0.0, 0.0, 1.6776158977445433E9, 0.0, 2023-02-28 12:24:57.744
222.0, 26065.44209306742, -4513.644220071343, 16604.015720369305, -3393.866526349369, 15099.475097593679, 7461.928720704165, -187500.02235174447, -187500.02235174447, -0.18, -0.772, -0.622, 192.0, 0.0, 0.0, 0.0, 0.0, 0.0, 0.0, 0.0, 0.0, 0.0, 1.677615897748649E9, 0.0, 2023-02-28 12:24:57.748
223.0, 26029.47813623883, -4515.1864904387585, 16381.05706942762, -3392.9501048267016, 14985.458849127157, 7381.015405775954, -187500.02235174447, -187500.02235174447, -0.18, -0.772, -0.622, 192.0, 0.0, 0.0, 0.0, 0.0, 0.0, 0.0, 0.0, 0.0, 0.0, 1.677615897752662E9, 0.0, 2023-02-28 12:24:57.752
224.0, 26054.221517350856, -4515.410007883312, 16499.521315040747, -3395.475851950151, 15043.193405055215, 7456.452543312615, -187500.02235174447, -187500.02235174447, -0.18, -0.772, -0.622, 192.0, 0.0, 0.0, 0.0, 0.0, 0.0, 0.0, 0.0, 0.0, 0.0, 1.677615897758594E9, 0.0, 2023-02-28 12:24:57.758
225.0, 26098.053288227715, -4515.030028227571, 16740.674285969053, -3396.6381426618273, 15167.513807715632, 7548.809951401944, -187500.02235174447, -187500.02235174447, -0.18, -0.772, -0.622, 192.0, 0.0, 0.0, 0.0, 0.0, 0.0, 0.0, 0.0, 0.0, 0.0, 1.677615897761598E9, 0.0, 2023-02-28 12:24:57.761
226.0, 26073.712238515884, -4517.0640369730045, 16651.468473847923, -3394.6935408942154, 15119.792833303552, 7486.470936116092, -187500.02235174447, -187500.02235174447, -0.18, -0.772, -0.622, 192.0, 0.0, 0.0, 0.0, 0.0, 0.0, 0.0, 0.0, 0.0, 0.0, 1.6776158977656283E9, 0.0, 2023-02-28 12:24:57.765
227.0, 26031.132165328523, -4519.366266651901, 16401.620674326503, -3394.0229885605563, 14992.074965485928, 7387.408004690172, -187500.02235174447, -187500.02235174447, -0.18, -0.772, -0.622, 192.0, 0.0, 0.0, 0.0, 0.0, 0.0, 0.0, 0.0, 0.0, 0.0, 1.677615897769722E9, 0.0, 2023-02-28 12:24:57.769
228.0, 26048.834746937126, -4520.394446896845, 16456.40479998646, -3396.6157909173717, 15018.450023943189, 7436.6712494696685, -187500.02235174447, -187500.02235174447, -0.18, -0.772, -0.622, 192.0, 0.0, 0.0, 0.0, 0.0, 0.0, 0.0, 0.0, 0.0, 0.0, 1.6776158977726402E9, 0.0, 2023-02-28 12:24:57.772
229.0, 26089.805494523705, -4520.975592252683, 16717.674340924543, -3399.38740722983, 15153.320449986513, 7542.797332143466, -187500.02235174447, -187500.02235174447, -0.18, -0.774, -0.62, 192.0, 250.0, 96.0, 231.0, 208.0, 236.0, 160.0, 0.0, 0.0, 0.0, 1.677615897776642E9, 0.0, 2023-02-28 12:24:57.776
230.0, 26080.26129964129, -4519.209804440714, 16693.288587723804, -3397.2639915065756, 15144.625621393398, 7503.860593302321, -187500.02235174447, -187500.02235174447, -0.18, -0.774, -0.62, 192.0, 0.0, 0.0, 0.0, 0.0, 0.0, 0.0, 0.0, 0.0, 0.0, 1.677615897780667E9, 0.0, 2023-02-28 12:24:57.780
231.0, 26029.67930193893, -4519.65683932982, 16430.43207292939, -3394.470023449662, 15011.610390139866, 7393.957065815576, -187500.02235174447, -187500.02235174447, -0.18, -0.774, -0.62, 192.0, 0.0, 0.0, 0.0, 0.0, 0.0, 0.0, 0.0, 0.0, 0.0, 1.6776158977846017E9, 0.0, 2023-02-28 12:24:57.784
232.0, 26030.640426950507, -4520.863833530407, 16418.25037220125, -3395.833479861436, 15005.038977270005, 7415.437092237126, -187500.02235174447, -187500.02235174447, -0.18, -0.774, -0.62, 192.0, 0.0, 0.0, 0.0, 0.0, 0.0, 0.0, 0.0, 0.0, 0.0, 1.6776158977896156E9, 0.0, 2023-02-28 12:24:57.789
233.0, 26090.54310209073, -4517.555775351021, 16679.899892795074, -3397.286343251031, 15142.591612647966, 7527.732256380589, -187500.02235174447, -187500.02235174447, -0.18, -0.774, -0.62, 192.0, 0.0, 0.0, 0.0, 0.0, 0.0, 0.0, 0.0, 0.0, 0.0, 1.6776158977946954E9, 0.0, 2023-02-28 12:24:57.794
234.0, 26098.36621265009, -4512.79485378204, 16723.150518316095, -3394.6935408942154, 15169.771333905619, 7518.255116731539, -187500.02235174447, -187500.02235174447, -0.18, -0.774, -0.62, 192.0, 0.0, 0.0, 0.0, 0.0, 0.0, 0.0, 0.0, 0.0, 0.0, 1.6776158977976837E9, 0.0, 2023-02-28 12:24:57.797
235.0, 26041.525726500244, -4513.51010960461, 16464.764352412745, -3391.4078344592854, 15041.06998933196, 7401.780176374934, -187500.02235174447, -187500.02235174447, -0.18, -0.774, -0.62, 192.0, 0.0, 0.0, 0.0, 0.0, 0.0, 0.0, 0.0, 0.0, 0.0, 1.677615897801624E9, 0.0, 2023-02-28 12:24:57.801
236.0, 26029.768708916752, -4515.4770631166775, 16388.276682886684, -3393.799471116003, 15001.596808623888, 7393.040644292909, -187500.02235174447, -187500.02235174447, -0.18, -0.774, -0.62, 192.0, 0.0, 0.0, 0.0, 0.0, 0.0, 0.0, 0.0, 0.0, 0.0, 1.6776158978046324E9, 0.0, 2023-02-28 12:24:57.804
237.0, 26083.323488631668, -4512.146653192836, 16636.04577017376, -3396.9510670842014, 15128.13003398538, 7506.922782292698, -187500.02235174447, -187500.02235174447, -0.18, -0.774, -0.62, 192.0, 0.0, 0.0, 0.0, 0.0, 0.0, 0.0, 0.0, 0.0, 0.0, 1.677615897808622E9, 0.0, 2023-02-28 12:24:57.808
238.0, 26105.407012153508, -4506.581068823465, 16745.323448815758, -3395.38644497233, 15185.57401723552, 7529.028657558997, -187500.02235174447, -187500.02235174447, -0.18, -0.774, -0.62, 192.0, 0.0, 0.0, 0.0, 0.0, 0.0, 0.0, 0.0, 0.0, 0.0, 1.6776158978146677E9, 0.0, 2023-02-28 12:24:57.814
239.0, 26059.518880786763, -4507.810414768507, 16512.150050657994, -3393.19597401571, 15064.986355899138, 7416.174699804152, -187500.02235174447, -187500.02235174447, -0.182, -0.778, -0.618, 192.0, 250.0, 80.0, 231.0, 176.0, 236.0, 176.0, 0.0, 0.0, 0.0, 1.6776158978179052E9, 0.0, 2023-02-28 12:24:57.817
240.0, 26037.86004040957, -4511.230231670169, 16376.81023798111, -3394.1123955383773, 14994.01956725354, 7379.6743011086355, -187500.02235174447, -187500.02235174447, -0.182, -0.778, -0.618, 192.0, 0.0, 0.0, 0.0, 0.0, 0.0, 0.0, 0.0, 0.0, 0.0, 1.6776158978216712E9, 0.0, 2023-02-28 12:24:57.821
241.0, 26077.98142170685, -4512.236060170658, 16592.28105453027, -3397.129881039844, 15100.100946438426, 7485.867439015799, -187500.02235174447, -187500.02235174447, -0.182, -0.778, -0.618, 192.0, 0.0, 0.0, 0.0, 0.0, 0.0, 0.0, 0.0, 0.0, 0.0, 1.6776158978256512E9, 0.0, 2023-02-28 12:24:57.825
242.0, 26110.391451167045, -4507.60924906841, 16758.98036467795, -3395.7217211391594, 15185.14933409087, 7537.25409951855, -187500.02235174447, -187500.02235174447, -0.182, -0.778, -0.618, 192.0, 0.0, 0.0, 0.0, 0.0, 0.0, 0.0, 0.0, 0.0, 0.0, 1.6776158978286407E9, 0.0, 2023-02-28 12:24:57.828
243.0, 26077.623793795563, -4504.256487400114, 16561.6591646265, -3390.893744336813, 15086.533437554055, 7438.705258215101, -187500.02235174447, -187500.02235174447, -0.182, -0.778, -0.618, 192.0, 0.0, 0.0, 0.0, 0.0, 0.0, 0.0, 0.0, 0.0, 0.0, 1.6776158978326485E9, 0.0, 2023-02-28 12:24:57.832
244.0, 26054.95912491788, -4501.954257721217, 16371.490522800748, -3388.7703286135593, 14990.711509074154, 7381.8424203208, -187500.02235174447, -187500.02235174447, -0.182, -0.778, -0.618, 192.0, 0.0, 0.0, 0.0, 0.0, 0.0, 0.0, 0.0, 0.0, 0.0, 1.677615897836672E9, 0.0, 2023-02-28 12:24:57.836
245.0, 26079.434285096442, -4503.69769378873, 16536.8040247922, -3391.3407792259195, 15071.177789113259, 7474.602159810324, -187500.02235174447, -187500.02235174447, -0.182, -0.778, -0.618, 192.0, 0.0, 0.0, 0.0, 0.0, 0.0, 0.0, 0.0, 0.0, 0.0, 1.6776158978407311E9, 0.0, 2023-02-28 12:24:57.840
246.0, 26114.615930869095, -4502.736568777153, 16751.537233774332, -3392.5030699375952, 15178.868493898928, 7548.988765357586, -187500.02235174447, -187500.02235174447, -0.182, -0.778, -0.618, 192.0, 0.0, 0.0, 0.0, 0.0, 0.0, 0.0, 0.0, 0.0, 0.0, 1.6776158978456352E9, 0.0, 2023-02-28 12:24:57.845
247.0, 26093.851160270115, -4500.009655953605, 16605.647397714543, -3389.060901291478, 15107.924056997785, 7462.934549204654, -187500.02235174447, -187500.02235174447, -0.182, -0.778, -0.618, 192.0, 0.0, 0.0, 0.0, 0.0, 0.0, 0.0, 0.0, 0.0, 0.0, 1.6776158978496628E9, 0.0, 2023-02-28 12:24:57.849
248.0, 26058.24483135281, -4498.713254775197, 16376.09498215854, -3386.5351541680284, 14991.605578852366, 7382.088289509808, -187500.02235174447, -187500.02235174447, -0.182, -0.778, -0.618, 192.0, 0.0, 0.0, 0.0, 0.0, 0.0, 0.0, 0.0, 0.0, 0.0, 1.67761589785376E9, 0.0, 2023-02-28 12:24:57.853
249.0, 26079.4566368409, -4497.975647208172, 16482.913968910452, -3387.9209623242573, 15047.239070801625, 7453.457409555604, -187500.02235174447, -187500.02235174447, -0.182, -0.778, -0.618, 192.0, 0.0, 0.0, 0.0, 0.0, 0.0, 0.0, 0.0, 0.0, 0.0, 1.6776158978567405E9, 0.0, 2023-02-28 12:24:57.856
250.0, 26116.471125658885, -4495.472251829177, 16728.045550351806, -3388.6585698912827, 15175.046345597071, 7548.184102557195, -187500.02235174447, -187500.02235174447, -0.184, -0.78, -0.618, 192.0, 250.0, 64.0, 231.0, 160.0, 236.0, 176.0, 0.0, 0.0, 0.0, 1.677615897860669E9, 0.0, 2023-02-28 12:24:57.860
251.0, 26098.701488816918, -4492.052434927516, 16646.886366234587, -3385.5516774119947, 15139.417664935312, 7486.023901226986, -187500.02235174447, -187500.02235174447, -0.184, -0.78, -0.618, 192.0, 0.0, 0.0, 0.0, 0.0, 0.0, 0.0, 0.0, 0.0, 0.0, 1.6776158978648157E9, 0.0, 2023-02-28 12:24:57.864
252.0, 26067.2525843683, -4489.034949426049, 16393.73050853378, -3382.9141715662686, 15012.63857038481, 7384.524629655437, -187500.02235174447, -187500.02235174447, -0.184, -0.78, -0.618, 192.0, 0.0, 0.0, 0.0, 0.0, 0.0, 0.0, 0.0, 0.0, 0.0, 1.6776158978688767E9, 0.0, 2023-02-28 12:24:57.868
253.0, 26081.602404308607, -4491.136013404848, 16437.092892777073, -3385.484622178629, 15037.381951496835, 7428.177586576651, -187500.02235174447, -187500.02235174447, -0.184, -0.78, -0.618, 192.0, 0.0, 0.0, 0.0, 0.0, 0.0, 0.0, 0.0, 0.0, 0.0, 1.6776158978737776E9, 0.0, 2023-02-28 12:24:57.873
254.0, 26123.064890273203, -4494.309961117502, 16700.843477349696, -3388.3679972133637, 15172.118267073425, 7536.427084973703, -187500.02235174447, -187500.02235174447, -0.184, -0.78, -0.618, 192.0, 0.0, 0.0, 0.0, 0.0, 0.0, 0.0, 0.0, 0.0, 0.0, 1.6776158978777132E9, 0.0, 2023-02-28 12:24:57.877
255.0, 26116.22525646988, -4496.388673351846, 16687.544189398788, -3386.646912890305, 15167.29029027108, 7504.017055513508, -187500.02235174447, -187500.02235174447, -0.184, -0.78, -0.618, 192.0, 0.0, 0.0, 0.0, 0.0, 0.0, 0.0, 0.0, 0.0, 0.0, 1.677615897881701E9, 0.0, 2023-02-28 12:24:57.881
0.0, 26074.941584460925, -4496.478080329666, 16424.754729837743, -3384.6576076337824, 15033.470396217155, 7395.99107456101, -187500.02235174447, -187500.02235174447, -0.184, -0.78, -0.618, 192.0, 0.0, 0.0, 0.0, 0.0, 0.0, 0.0, 0.0, 0.0, 0.0, 1.677615897884776E9, 0.0, 2023-02-28 12:24:57.884
1.0, 26068.169005890966, -4499.383807108857, 16404.615808083512, -3387.943314068713, 15020.439329199711, 7416.398217248705, -187500.02235174447, -187500.02235174447, -0.184, -0.78, -0.618, 192.0, 0.0, 0.0, 0.0, 0.0, 0.0, 0.0, 0.0, 0.0, 0.0, 1.6776158978887188E9, 0.0, 2023-02-28 12:24:57.888
2.0, 26115.375890180578, -4501.864850743395, 16666.48884612189, -3392.324255981953, 15155.28740349858, 7530.168596526218, -187500.02235174447, -187500.02235174447, -0.184, -0.78, -0.618, 192.0, 0.0, 0.0, 0.0, 0.0, 0.0, 0.0, 0.0, 0.0, 0.0, 1.6776158978927238E9, 0.0, 2023-02-28 12:24:57.892
3.0, 26132.184402010967, -4502.960086221706, 16721.518840970857, -3391.318427481464, 15186.19986608027, 7527.464035447126, -187500.02235174447, -187500.02235174447, -0.184, -0.78, -0.618, 192.0, 0.0, 0.0, 0.0, 0.0, 0.0, 0.0, 0.0, 0.0, 0.0, 1.67761589789672E9, 0.0, 2023-02-28 12:24:57.896
4.0, 26102.389526652045, -4501.08253968746, 16467.178340813916, -3387.7868518575256, 15057.74439069562, 7414.744188159012, -187500.02235174447, -187500.02235174447, -0.188, -0.778, -0.616, 192.0, 250.0, 32.0, 231.0, 176.0, 236.0, 192.0, 0.0, 0.0, 0.0, 1.6776158979017885E9, 0.0, 2023-02-28 12:24:57.901
5.0, 26104.289424930743, -4501.708388532208, 16383.359299106516, -3389.1056047803886, 15014.180840752226, 7401.355493230283, -187500.02235174447, -187500.02235174447, -0.188, -0.778, -0.616, 192.0, 0.0, 0.0, 0.0, 0.0, 0.0, 0.0, 0.0, 0.0, 0.0, 1.6776158979057224E9, 0.0, 2023-02-28 12:24:57.905
6.0, 26143.852012616637, -4500.166118164792, 16627.19447936946, -3392.1454420263103, 15141.51872891411, 7507.906259048732, -187500.02235174447, -187500.02235174447, -0.188, -0.778, -0.616, 192.0, 0.0, 0.0, 0.0, 0.0, 0.0, 0.0, 0.0, 0.0, 0.0, 1.6776158979097419E9, 0.0, 2023-02-28 12:24:57.909
7.0, 26126.998797297336, -4501.261353643102, 16746.88807092763, -3392.614828659872, 15204.39418606689, 7526.860538346832, -187500.02235174447, -187500.02235174447, -0.188, -0.778, -0.616, 192.0, 0.0, 0.0, 0.0, 0.0, 0.0, 0.0, 0.0, 0.0, 0.0, 1.6776158979127512E9, 0.0, 2023-02-28 12:24:57.912
8.0, 26058.803624964195, -4503.585935066454, 16516.061605937673, -3389.91026758078, 15088.165114899293, 7413.55954570288, -187500.02235174447, -187500.02235174447, -0.188, -0.778, -0.616, 192.0, 0.0, 0.0, 0.0, 0.0, 0.0, 0.0, 0.0, 0.0, 0.0, 1.6776158979167702E9, 0.0, 2023-02-28 12:24:57.916
9.0, 26043.939714901415, -4498.89206873084, 16369.76943847769, -3388.300941979998, 15014.918448319251, 7375.762745828956, -187500.02235174447, -187500.02235174447, -0.188, -0.778, -0.616, 192.0, 0.0, 0.0, 0.0, 0.0, 0.0, 0.0, 0.0, 0.0, 0.0, 1.6776158979208295E9, 0.0, 2023-02-28 12:24:57.920
10.0, 26107.418669154486, -4494.824051239973, 16578.400621223525, -3390.513764681073, 15120.776310059586, 7480.14539243524, -187500.02235174447, -187500.02235174447, -0.188, -0.778, -0.616, 192.0, 0.0, 0.0, 0.0, 0.0, 0.0, 0.0, 0.0, 0.0, 0.0, 1.6776158979267442E9, 0.0, 2023-02-28 12:24:57.926
11.0, 26144.433157972475, -4491.136013404848, 16753.727704730954, -3390.4914129366175, 15209.44568031379, 7534.080151805896, -187500.02235174447, -187500.02235174447, -0.188, -0.778, -0.616, 192.0, 0.0, 0.0, 0.0, 0.0, 0.0, 0.0, 0.0, 0.0, 0.0, 1.6776158979297354E9, 0.0, 2023-02-28 12:24:57.929
12.0, 26105.02703249777, -4490.398405837823, 16564.22961523886, -3387.8315553464363, 15113.199068689237, 7435.7324762025455, -187500.02235174447, -187500.02235174447, -0.188, -0.778, -0.616, 192.0, 0.0, 0.0, 0.0, 0.0, 0.0, 0.0, 0.0, 0.0, 0.0, 1.6776158979337487E9, 0.0, 2023-02-28 12:24:57.933
13.0, 26074.896880972014, -4490.666626771286, 16369.925900688875, -3387.362168712875, 15010.045768027994, 7374.198123717085, -187500.02235174447, -187500.02235174447, -0.188, -0.778, -0.616, 192.0, 0.0, 0.0, 0.0, 0.0, 0.0, 0.0, 0.0, 0.0, 0.0, 1.6776158979368172E9, 0.0, 2023-02-28 12:24:57.936
14.0, 26121.030881527768, -4485.570429035477, 16529.204431677394, -3388.345645468908, 15090.422641089279, 7466.711994017601, -187500.02235174447, -187500.02235174447, -0.186, -0.782, -0.614, 192.0, 250.0, 48.0, 231.0, 144.0, 236.0, 208.0, 0.0, 0.0, 0.0, 1.6776158979407663E9, 0.0, 2023-02-28 12:24:57.940
15.0, 26187.32615558221, -4481.1447836333255, 16748.40798955059, -3386.66926463476, 15203.030729655115, 7547.804122901455, -187500.02235174447, -187500.02235174447, -0.186, -0.782, -0.614, 192.0, 0.0, 0.0, 0.0, 0.0, 0.0, 0.0, 0.0, 0.0, 0.0, 1.67761589794476E9, 0.0, 2023-02-28 12:24:57.944
16.0, 26155.65373368904, -4479.244885354625, 16613.559915251724, -3382.735357610626, 15136.46723466721, 7465.393241094737, -187500.02235174447, -187500.02235174447, -0.186, -0.782, -0.614, 192.0, 0.0, 0.0, 0.0, 0.0, 0.0, 0.0, 0.0, 0.0, 0.0, 1.6776158979488697E9, 0.0, 2023-02-28 12:24:57.948
17.0, 26089.760791034794, -4481.278894100058, 16381.392345594448, -3382.2659709770646, 15014.538468663512, 7379.540190641903, -187500.02235174447, -187500.02235174447, -0.186, -0.782, -0.614, 192.0, 0.0, 0.0, 0.0, 0.0, 0.0, 0.0, 0.0, 0.0, 0.0, 1.677615897952902E9, 0.0, 2023-02-28 12:24:57.952
18.0, 26104.69175633094, -4480.049548155016, 16481.796381687687, -3384.8140698449697, 15061.812408186486, 7451.602214765813, -187500.02235174447, -187500.02235174447, -0.186, -0.782, -0.614, 192.0, 0.0, 0.0, 0.0, 0.0, 0.0, 0.0, 0.0, 0.0, 0.0, 1.6776158979568036E9, 0.0, 2023-02-28 12:24:57.956
19.0, 26145.59544868415, -4478.551981276511, 16730.683056197533, -3386.088119278922, 15190.5361045046, 7551.425105503215, -187500.02235174447, -187500.02235174447, -0.186, -0.782, -0.614, 192.0, 0.0, 0.0, 0.0, 0.0, 0.0, 0.0, 0.0, 0.0, 0.0, 1.677615897961928E9, 0.0, 2023-02-28 12:24:57.961
20.0, 26134.196059011945, -4483.022330167571, 16659.87272976312, -3384.1658692557658, 15151.554662174543, 7495.612799598312, -187500.02235174447, -187500.02235174447, -0.186, -0.782, -0.614, 192.0, 0.0, 0.0, 0.0, 0.0, 0.0, 0.0, 0.0, 0.0, 0.0, 1.6776158979658244E9, 0.0, 2023-02-28 12:24:57.965
21.0, 26093.44882886992, -4483.201144123214, 16402.53709584917, -3381.6177703878607, 15020.439329199711, 7394.493507682504, -187500.02235174447, -187500.02235174447, -0.186, -0.782, -0.614, 192.0, 0.0, 0.0, 0.0, 0.0, 0.0, 0.0, 0.0, 0.0, 0.0, 1.677615897968834E9, 0.0, 2023-02-28 12:24:57.968
22.0, 26106.211674953902, -4481.390652822334, 16435.26004973174, -3383.4729651776515, 15038.879518375341, 7436.000697136009, -187500.02235174447, -187500.02235174447, -0.186, -0.782, -0.614, 192.0, 0.0, 0.0, 0.0, 0.0, 0.0, 0.0, 0.0, 0.0, 0.0, 1.6776158979727783E9, 0.0, 2023-02-28 12:24:57.972
23.0, 26144.54491669475, -4482.12826038936, 16699.457669193467, -3385.8198983454586, 15171.827694395506, 7545.323079266916, -187500.02235174447, -187500.02235174447, -0.186, -0.782, -0.614, 192.0, 0.0, 0.0, 0.0, 0.0, 0.0, 0.0, 0.0, 0.0, 0.0, 1.6776158979767976E9, 0.0, 2023-02-28 12:24:57.976
24.0, 26137.07943404668, -4481.770632478075, 16693.042718534794, -3383.405909944285, 15170.888921128384, 7513.24832597355, -187500.02235174447, -187500.02235174447, -0.186, -0.778, -0.616, 192.0, 250.0, 48.0, 231.0, 176.0, 236.0, 192.0, 0.0, 0.0, 0.0, 1.6776158979808087E9, 0.0, 2023-02-28 12:24:57.980
25.0, 26106.524599376276, -4478.417870809779, 16428.375712439505, -3379.516706409062, 15040.533547465033, 7401.400196719193, -187500.02235174447, -187500.02235174447, -0.186, -0.778, -0.616, 192.0, 0.0, 0.0, 0.0, 0.0, 0.0, 0.0, 0.0, 0.0, 0.0, 1.6776158979848118E9, 0.0, 2023-02-28 12:24:57.984
26.0, 26123.199000739933, -4476.026234153061, 16396.94915973534, -3380.544886654006, 15025.4461199577, 7415.213574792573, -187500.02235174447, -187500.02235174447, -0.186, -0.778, -0.616, 192.0, 0.0, 0.0, 0.0, 0.0, 0.0, 0.0, 0.0, 0.0, 0.0, 1.6776158979897943E9, 0.0, 2023-02-28 12:24:57.989
27.0, 26157.26305928982, -4480.585990021943, 16658.77749428481, -3385.9093053232796, 15160.09302855647, 7527.084055791385, -187500.02235174447, -187500.02235174447, -0.186, -0.778, -0.616, 192.0, 0.0, 0.0, 0.0, 0.0, 0.0, 0.0, 0.0, 0.0, 0.0, 1.6776158979927871E9, 0.0, 2023-02-28 12:24:57.992
28.0, 26143.159108538523, -4485.6598360132975, 16725.005713105886, -3386.8257268459474, 15193.978273150717, 7526.055875546441, -187500.02235174447, -187500.02235174447, -0.186, -0.778, -0.616, 192.0, 0.0, 0.0, 0.0, 0.0, 0.0, 0.0, 0.0, 0.0, 0.0, 1.677615897996856E9, 0.0, 2023-02-28 12:24:57.996
29.0, 26106.859875543105, -4485.346911590924, 16473.794457172688, -3384.8587733338804, 15066.59568149992, 7411.793757890911, -187500.02235174447, -187500.02235174447, -0.186, -0.778, -0.616, 192.0, 0.0, 0.0, 0.0, 0.0, 0.0, 0.0, 0.0, 0.0, 0.0, 1.6776158980008724E9, 0.0, 2023-02-28 12:24:58.000
30.0, 26109.07269824418, -4483.938751690239, 16380.073592671586, -3385.059939033978, 15020.282866988526, 7394.851135593789, -187500.02235174447, -187500.02235174447, -0.186, -0.778, -0.616, 192.0, 0.0, 0.0, 0.0, 0.0, 0.0, 0.0, 0.0, 0.0, 0.0, 1.6776158980048766E9, 0.0, 2023-02-28 12:24:58.004
31.0, 26151.13868130907, -4486.531554047055, 16620.33249382168, -3389.060901291478, 15146.212595249724, 7507.593334626357, -187500.02235174447, -187500.02235174447, -0.186, -0.778, -0.616, 192.0, 0.0, 0.0, 0.0, 0.0, 0.0, 0.0, 0.0, 0.0, 0.0, 1.677615898008867E9, 0.0, 2023-02-28 12:24:58.008
32.0, 26169.1765390845, -4487.3585685919015, 16748.586803506234, -3388.7926803580144, 15216.084148417014, 7536.427084973703, -187500.02235174447, -187500.02235174447, -0.186, -0.778, -0.616, 192.0, 0.0, 0.0, 0.0, 0.0, 0.0, 0.0, 0.0, 0.0, 0.0, 1.677615898012835E9, 0.0, 2023-02-28 12:24:58.012
33.0, 26127.579942653174, -4486.375091835867, 16523.325922885648, -3384.8587733338804, 15101.106774938915, 7429.89867089971, -187500.02235174447, -187500.02235174447, -0.186, -0.778, -0.616, 192.0, 0.0, 0.0, 0.0, 0.0, 0.0, 0.0, 0.0, 0.0, 0.0, 1.677615898018881E9, 0.0, 2023-02-28 12:24:58.018
34.0, 26103.93179701946, -4487.760899992097, 16371.021136167186, -3385.8869535788244, 15022.518041434056, 7388.570295401847, -187500.02235174447, -187500.02235174447, -0.178, -0.776, -0.616, 192.0, 250.0, 112.0, 231.0, 192.0, 236.0, 192.0, 0.0, 0.0, 0.0, 1.6776158980218832E9, 0.0, 2023-02-28 12:24:58.021
35.0, 26139.04638755875, -4487.515030803088, 16574.153789777018, -3388.2115350021763, 15123.816147305508, 7489.689587317656, -187500.02235174447, -187500.02235174447, -0.178, -0.776, -0.616, 192.0, 0.0, 0.0, 0.0, 0.0, 0.0, 0.0, 0.0, 0.0, 0.0, 1.6776158980258472E9, 0.0, 2023-02-28 12:24:58.025
36.0, 26161.822815158706, -4487.380920336356, 16757.46044605499, -3389.0385495470227, 15215.01126468316, 7544.876044377809, -187500.02235174447, -187500.02235174447, -0.178, -0.776, -0.616, 192.0, 0.0, 0.0, 0.0, 0.0, 0.0, 0.0, 0.0, 0.0, 0.0, 1.6776158980288608E9, 0.0, 2023-02-28 12:24:58.028
37.0, 26139.538125936764, -4486.1292226468595, 16576.590129922646, -3385.998712301101, 15123.771443816597, 7445.90251992971, -187500.02235174447, -187500.02235174447, -0.178, -0.776, -0.616, 192.0, 0.0, 0.0, 0.0, 0.0, 0.0, 0.0, 0.0, 0.0, 0.0, 1.6776158980328724E9, 0.0, 2023-02-28 12:24:58.032
38.0, 26106.256378442813, -4486.643312769332, 16377.033755425664, -3386.378691956841, 15019.657018143776, 7374.242827205995, -187500.02235174447, -187500.02235174447, -0.178, -0.776, -0.616, 192.0, 0.0, 0.0, 0.0, 0.0, 0.0, 0.0, 0.0, 0.0, 0.0, 1.677615898036903E9, 0.0, 2023-02-28 12:24:58.036
39.0, 26129.92687582098, -4488.4761558146665, 16529.427949121946, -3390.7819856145366, 15094.960045213706, 7455.536121789947, -187500.02235174447, -187500.02235174447, -0.178, -0.776, -0.616, 192.0, 0.0, 0.0, 0.0, 0.0, 0.0, 0.0, 0.0, 0.0, 0.0, 1.6776158980408611E9, 0.0, 2023-02-28 12:24:58.040
40.0, 26165.600259971652, -4487.760899992097, 16755.001754164907, -3391.4748896926512, 15207.814002968551, 7537.075285562907, -187500.02235174447, -187500.02235174447, -0.178, -0.776, -0.616, 192.0, 0.0, 0.0, 0.0, 0.0, 0.0, 0.0, 0.0, 0.0, 0.0, 1.6776158980458653E9, 0.0, 2023-02-28 12:24:58.045
41.0, 26143.18146028298, -4484.810469723996, 16627.976790425397, -3387.7197966241597, 15142.256336481136, 7460.0958776588295, -187500.02235174447, -187500.02235174447, -0.178, -0.776, -0.616, 192.0, 0.0, 0.0, 0.0, 0.0, 0.0, 0.0, 0.0, 0.0, 0.0, 1.6776158980489404E9, 0.0, 2023-02-28 12:24:58.048
42.0, 26101.96484350739, -4485.525725546566, 16390.221284654293, -3385.6634361342713, 15020.059349543972, 7373.12523998323, -187500.02235174447, -187500.02235174447, -0.178, -0.776, -0.616, 192.0, 0.0, 0.0, 0.0, 0.0, 0.0, 0.0, 0.0, 0.0, 0.0, 1.677615898051944E9, 0.0, 2023-02-28 12:24:58.051
43.0, 26122.640207128552, -4483.111737145393, 16480.16470434245, -3387.00454080159, 15066.372164055369, 7439.800493693411, -187500.02235174447, -187500.02235174447, -0.178, -0.776, -0.616, 192.0, 0.0, 0.0, 0.0, 0.0, 0.0, 0.0, 0.0, 0.0, 0.0, 1.6776158980569353E9, 0.0, 2023-02-28 12:24:58.056
44.0, 26176.306745565744, -4476.205048108703, 16732.091216098215, -3386.6022094013942, 15197.599255752475, 7538.259928019039, -187500.02235174447, -187500.02235174447, -0.178, -0.776, -0.622, 192.0, 250.0, 112.0, 231.0, 192.0, 236.0, 144.0, 0.0, 0.0, 0.0, 1.677615898060878E9, 0.0, 2023-02-28 12:24:58.060
45.0, 26155.810195900227, -4475.132164374848, 16668.366392656135, -3382.780061099537, 15168.899615871862, 7485.375700637782, -187500.02235174447, -187500.02235174447, -0.178, -0.776, -0.622, 192.0, 0.0, 0.0, 0.0, 0.0, 0.0, 0.0, 0.0, 0.0, 0.0, 1.6776158980648844E9, 0.0, 2023-02-28 12:24:58.064
46.0, 26114.191247724444, -4475.467440541678, 16408.66147382992, -3380.2766657205425, 15038.253669530592, 7382.647083121191, -187500.02235174447, -187500.02235174447, -0.178, -0.776, -0.622, 192.0, 0.0, 0.0, 0.0, 0.0, 0.0, 0.0, 0.0, 0.0, 0.0, 1.6776158980689902E9, 0.0, 2023-02-28 12:24:58.068
47.0, 26139.247553258843, -4475.288626586035, 16433.427206686403, -3382.28832272152, 15053.072876104461, 7420.130958572741, -187500.02235174447, -187500.02235174447, -0.178, -0.776, -0.622, 192.0, 0.0, 0.0, 0.0, 0.0, 0.0, 0.0, 0.0, 0.0, 0.0, 1.6776158980729585E9, 0.0, 2023-02-28 12:24:58.072
48.0, 26189.963661427937, -4473.366376562879, 16696.618997647645, -3383.405909944285, 15191.586636493998, 7531.085018048885, -187500.02235174447, -187500.02235174447, -0.178, -0.776, -0.622, 192.0, 0.0, 0.0, 0.0, 0.0, 0.0, 0.0, 0.0, 0.0, 0.0, 1.6776158980770097E9, 0.0, 2023-02-28 12:24:58.077
49.0, 26174.36214379813, -4473.07580388496, 16702.519858183845, -3380.2766657205425, 15196.05698538506, 7508.085073004374, -187500.02235174447, -187500.02235174447, -0.178, -0.776, -0.622, 192.0, 0.0, 0.0, 0.0, 0.0, 0.0, 0.0, 0.0, 0.0, 0.0, 1.6776158980799105E9, 0.0, 2023-02-28 12:24:58.079
50.0, 26125.322416463187, -4470.17007710577, 16437.785796855187, -3376.0074825295787, 15060.22543433016, 7397.13101352823, -187500.02235174447, -187500.02235174447, -0.178, -0.776, -0.622, 192.0, 0.0, 0.0, 0.0, 0.0, 0.0, 0.0, 0.0, 0.0, 0.0, 1.677615898084936E9, 0.0, 2023-02-28 12:24:58.084
51.0, 26125.83650658566, -4471.131202117348, 16394.95985447882, -3377.326235452442, 15037.359599752379, 7406.585801432825, -187500.02235174447, -187500.02235174447, -0.178, -0.776, -0.622, 192.0, 0.0, 0.0, 0.0, 0.0, 0.0, 0.0, 0.0, 0.0, 0.0, 1.6776158980889022E9, 0.0, 2023-02-28 12:24:58.088
52.0, 26171.367010041122, -4474.17103936327, 16652.72017153742, -3381.2377907321206, 15168.631394938398, 7520.289125476972, -187500.02235174447, -187500.02235174447, -0.178, -0.776, -0.622, 192.0, 0.0, 0.0, 0.0, 0.0, 0.0, 0.0, 0.0, 0.0, 0.0, 1.6776158980929356E9, 0.0, 2023-02-28 12:24:58.092
53.0, 26168.99772512886, -4472.181734106748, 16724.82689915024, -3380.47783142064, 15209.400976824878, 7523.530128422992, -187500.02235174447, -187500.02235174447, -0.178, -0.776, -0.622, 192.0, 0.0, 0.0, 0.0, 0.0, 0.0, 0.0, 0.0, 0.0, 0.0, 1.6776158980969708E9, 0.0, 2023-02-28 12:24:58.096
54.0, 26121.99200653935, -4468.471344527166, 16474.01797461724, -3377.3932906858076, 15085.594664286931, 7408.217478778062, -187500.02235174447, -187500.02235174447, -0.17400000000000002, -0.776, -0.62, 192.0, 250.0, 144.0, 231.0, 192.0, 236.0, 160.0, 0.0, 0.0, 0.0, 1.6776158981009476E9, 0.0, 2023-02-28 12:24:58.100
55.0, 26112.35840467911, -4467.152591604304, 16369.590624522047, -3378.0861947639223, 15030.45291071569, 7388.167964001652, -187500.02235174447, -187500.02235174447, -0.17400000000000002, -0.776, -0.62, 192.0, 0.0, 0.0, 0.0, 0.0, 0.0, 0.0, 0.0, 0.0, 0.0, 1.6776158981049974E9, 0.0, 2023-02-28 12:24:58.104
56.0, 26149.372893497097, -4473.187562607237, 16606.42970877048, -3382.802412843992, 15151.264089496624, 7495.277523431483, -187500.02235174447, -187500.02235174447, -0.17400000000000002, -0.776, -0.62, 192.0, 0.0, 0.0, 0.0, 0.0, 0.0, 0.0, 0.0, 0.0, 0.0, 1.6776158981079445E9, 0.0, 2023-02-28 12:24:58.107
57.0, 26152.18921329847, -4479.691920243731, 16742.64123948112, -3383.651779133294, 15221.225049641735, 7525.765302868522, -187500.02235174447, -187500.02235174447, -0.17400000000000002, -0.776, -0.62, 192.0, 0.0, 0.0, 0.0, 0.0, 0.0, 0.0, 0.0, 0.0, 0.0, 1.677615898112954E9, 0.0, 2023-02-28 12:24:58.112
58.0, 26115.73351809186, -4477.769670220575, 16523.504736841292, -3380.3437209539084, 15107.409966875312, 7417.940487616121, -187500.02235174447, -187500.02235174447, -0.17400000000000002, -0.776, -0.62, 192.0, 0.0, 0.0, 0.0, 0.0, 0.0, 0.0, 0.0, 0.0, 0.0, 1.677615898116963E9, 0.0, 2023-02-28 12:24:58.116
59.0, 26097.24862542732, -4479.2001818657145, 16364.069743641585, -3381.6848256212265, 15023.725035634643, 7372.655853349669, -187500.02235174447, -187500.02235174447, -0.17400000000000002, -0.776, -0.62, 192.0, 0.0, 0.0, 0.0, 0.0, 0.0, 0.0, 0.0, 0.0, 0.0, 1.6776158981209629E9, 0.0, 2023-02-28 12:24:58.120
60.0, 26127.199962997434, -4482.865867956384, 16562.329716960157, -3387.1162995238665, 15121.245696693148, 7472.8140202539, -187500.02235174447, -187500.02235174447, -0.17400000000000002, -0.776, -0.62, 192.0, 0.0, 0.0, 0.0, 0.0, 0.0, 0.0, 0.0, 0.0, 0.0, 1.6776158981249588E9, 0.0, 2023-02-28 12:24:58.124
61.0, 26168.438931517474, -4482.754109234108, 16752.900690186107, -3387.608037901883, 15217.291142617602, 7530.68268664869, -187500.02235174447, -187500.02235174447, -0.17400000000000002, -0.776, -0.62, 192.0, 0.0, 0.0, 0.0, 0.0, 0.0, 0.0, 0.0, 0.0, 0.0, 1.677615898127984E9, 0.0, 2023-02-28 12:24:58.127
62.0, 26142.667370160507, -4480.340120832935, 16578.981766579363, -3384.2999797224975, 15127.191260718258, 7437.632374481246, -187500.02235174447, -187500.02235174447, -0.17400000000000002, -0.776, -0.62, 192.0, 0.0, 0.0, 0.0, 0.0, 0.0, 0.0, 0.0, 0.0, 0.0, 1.677615898131997E9, 0.0, 2023-02-28 12:24:58.131
63.0, 26120.002701282825, -4476.74148997563, 16371.691688500845, -3382.6235988883495, 15018.919410576751, 7370.398327159683, -187500.02235174447, -187500.02235174447, -0.17400000000000002, -0.776, -0.62, 192.0, 0.0, 0.0, 0.0, 0.0, 0.0, 0.0, 0.0, 0.0, 0.0, 1.6776158981361227E9, 0.0, 2023-02-28 12:24:58.136
64.0, 26153.21739354341, -4477.859077198395, 16516.508640826778, -3385.8869535788244, 15091.070841678482, 7452.8762641997655, -187500.02235174447, -187500.02235174447, -0.176, -0.784, -0.618, 192.0, 250.0, 128.0, 231.0, 128.0, 236.0, 176.0, 0.0, 0.0, 0.0, 1.677615898140098E9, 0.0, 2023-02-28 12:24:58.140
65.0, 26174.51860600932, -4478.976664421161, 16746.441036038523, -3387.0715960349557, 15212.217296626246, 7534.437779717181, -187500.02235174447, -187500.02235174447, -0.176, -0.784, -0.618, 192.0, 0.0, 0.0, 0.0, 0.0, 0.0, 0.0, 0.0, 0.0, 0.0, 1.67761589814501E9, 0.0, 2023-02-28 12:24:58.145
66.0, 26147.718864407405, -4475.132164374848, 16629.027322414797, -3383.8752965778467, 15153.23104300869, 7460.542912547936, -187500.02235174447, -187500.02235174447, -0.176, -0.784, -0.618, 192.0, 0.0, 0.0, 0.0, 0.0, 0.0, 0.0, 0.0, 0.0, 0.0, 1.677615898149988E9, 0.0, 2023-02-28 12:24:58.149
67.0, 26115.197076224933, -4472.047623640015, 16389.483677087268, -3381.9753982991456, 15031.190518282714, 7368.766649814445, -187500.02235174447, -187500.02235174447, -0.176, -0.784, -0.618, 192.0, 0.0, 0.0, 0.0, 0.0, 0.0, 0.0, 0.0, 0.0, 0.0, 1.677615898154003E9, 0.0, 2023-02-28 12:24:58.154
68.0, 26139.64988465904, -4470.818277694974, 16471.11224783805, -3385.2164012451653, 15072.496542036122, 7426.769426675967, -187500.02235174447, -187500.02235174447, -0.176, -0.784, -0.618, 192.0, 0.0, 0.0, 0.0, 0.0, 0.0, 0.0, 0.0, 0.0, 0.0, 1.6776158981570148E9, 0.0, 2023-02-28 12:24:58.157
69.0, 26184.576891014207, -4469.097193371916, 16726.68209394003, -3386.6245611458494, 15202.67310174383, 7529.922727337209, -187500.02235174447, -187500.02235174447, -0.176, -0.784, -0.618, 192.0, 0.0, 0.0, 0.0, 0.0, 0.0, 0.0, 0.0, 0.0, 0.0, 1.6776158981600428E9, 0.0, 2023-02-28 12:24:58.160
70.0, 26187.32615558221, -4468.046661382516, 16673.909625281052, -3383.808241344481, 15175.292214786079, 7482.335863391861, -187500.02235174447, -187500.02235174447, -0.176, -0.784, -0.618, 192.0, 0.0, 0.0, 0.0, 0.0, 0.0, 0.0, 0.0, 0.0, 0.0, 1.6776158981640968E9, 0.0, 2023-02-28 12:24:58.164
71.0, 26157.55363196774, -4462.995167135617, 16413.377691909995, -3379.181430242232, 15046.054428345495, 7377.707347596568, -187500.02235174447, -187500.02235174447, -0.176, -0.784, -0.618, 192.0, 0.0, 0.0, 0.0, 0.0, 0.0, 0.0, 0.0, 0.0, 0.0, 1.677615898168041E9, 0.0, 2023-02-28 12:24:58.168
72.0, 26158.470053490408, -4461.698765957209, 16427.861622317032, -3380.455479676185, 15057.40911452879, 7410.475004968048, -187500.02235174447, -187500.02235174447, -0.176, -0.784, -0.618, 192.0, 0.0, 0.0, 0.0, 0.0, 0.0, 0.0, 0.0, 0.0, 0.0, 1.677615898173007E9, 0.0, 2023-02-28 12:24:58.173
73.0, 26205.3863651021, -4456.446106010211, 16691.813372589753, -3382.064805276967, 15193.508886517155, 7523.239555745073, -187500.02235174447, -187500.02235174447, -0.176, -0.784, -0.618, 192.0, 0.0, 0.0, 0.0, 0.0, 0.0, 0.0, 0.0, 0.0, 0.0, 1.677615898177082E9, 0.0, 2023-02-28 12:24:58.177
74.0, 26213.298882639276, -4451.327556529946, 16706.565523930254, -3378.6673401197604, 15204.751813978173, 7501.558363623424, -187500.02235174447, -187500.02235174447, -0.186, -0.786, -0.62, 192.0, 250.0, 48.0, 231.0, 112.0, 236.0, 160.0, 0.0, 0.0, 0.0, 1.6776158981810715E9, 0.0, 2023-02-28 12:24:58.181
75.0, 26177.71490546643, -4452.579254219443, 16443.709009135844, -3376.3651104408636, 15070.663698990787, 7384.859905822266, -187500.02235174447, -187500.02235174447, -0.186, -0.786, -0.62, 192.0, 0.0, 0.0, 0.0, 0.0, 0.0, 0.0, 0.0, 0.0, 0.0, 1.6776158981840906E9, 0.0, 2023-02-28 12:24:58.184
76.0, 26185.068629392223, -4454.032117609038, 16390.15422942093, -3378.153249997288, 15043.573384710955, 7388.391481446205, -187500.02235174447, -187500.02235174447, -0.186, -0.786, -0.62, 192.0, 0.0, 0.0, 0.0, 0.0, 0.0, 0.0, 0.0, 0.0, 0.0, 1.677615898188095E9, 0.0, 2023-02-28 12:24:58.188
77.0, 26229.90622876957, -4453.182751319737, 16644.20415689995, -3379.807279086981, 15176.38745026439, 7501.379549667782, -187500.02235174447, -187500.02235174447, -0.186, -0.786, -0.62, 192.0, 0.0, 0.0, 0.0, 0.0, 0.0, 0.0, 0.0, 0.0, 0.0, 1.677615898192053E9, 0.0, 2023-02-28 12:24:58.192
78.0, 26236.365882917155, -4452.512198986077, 16725.743320672907, -3378.1085465083775, 15224.287238632112, 7508.018017771008, -187500.02235174447, -187500.02235174447, -0.186, -0.786, -0.62, 192.0, 0.0, 0.0, 0.0, 0.0, 0.0, 0.0, 0.0, 0.0, 0.0, 1.677615898197085E9, 0.0, 2023-02-28 12:24:58.197
79.0, 26204.022908690324, -4448.69005068422, 16476.901349651976, -3373.995825528601, 15101.03971970555, 7394.448804193593, -187500.02235174447, -187500.02235174447, -0.186, -0.786, -0.62, 192.0, 0.0, 0.0, 0.0, 0.0, 0.0, 0.0, 0.0, 0.0, 0.0, 1.677615898201172E9, 0.0, 2023-02-28 12:24:58.201
80.0, 26209.364975615143, -4447.259539039081, 16362.303955829617, -3374.219342973154, 15047.26142254608, 7369.057222492364, -187500.02235174447, -187500.02235174447, -0.186, -0.786, -0.62, 192.0, 0.0, 0.0, 0.0, 0.0, 0.0, 0.0, 0.0, 0.0, 0.0, 1.6776158982050593E9, 0.0, 2023-02-28 12:24:58.205
81.0, 26262.71858962996, -4447.885387883829, 16593.28688303076, -3377.4603459191735, 15166.038592581583, 7478.334901134361, -187500.02235174447, -187500.02235174447, -0.186, -0.786, -0.62, 192.0, 0.0, 0.0, 0.0, 0.0, 0.0, 0.0, 0.0, 0.0, 0.0, 1.6776158982090876E9, 0.0, 2023-02-28 12:24:58.209
82.0, 26285.942052119026, -4442.588024447921, 16738.014428378872, -3376.3427586964085, 15242.995648741204, 7516.310514963927, -187500.02235174447, -187500.02235174447, -0.186, -0.786, -0.62, 192.0, 0.0, 0.0, 0.0, 0.0, 0.0, 0.0, 0.0, 0.0, 0.0, 1.6776158982120616E9, 0.0, 2023-02-28 12:24:58.212
83.0, 26241.707949841973, -4439.391724990813, 16523.348274630105, -3372.453555161185, 15136.46723466721, 7407.949257844599, -187500.02235174447, -187500.02235174447, -0.186, -0.786, -0.62, 192.0, 0.0, 0.0, 0.0, 0.0, 0.0, 0.0, 0.0, 0.0, 0.0, 1.6776158982161288E9, 0.0, 2023-02-28 12:24:58.216
84.0, 26220.272626909333, -4440.710477913675, 16356.559557504603, -3373.0123487725677, 15051.351791781402, 7354.93091999661, -187500.02235174447, -187500.02235174447, -0.192, -0.782, -0.618, 192.0, 250.0, 0.0, 231.0, 144.0, 236.0, 176.0, 0.0, 0.0, 0.0, 1.6776158982221315E9, 0.0, 2023-02-28 12:24:58.222
85.0, 26260.416359951065, -4441.1128093138705, 16547.018772008272, -3376.521572652051, 15145.698505127253, 7452.026897910464, -187500.02235174447, -187500.02235174447, -0.192, -0.782, -0.618, 192.0, 0.0, 0.0, 0.0, 0.0, 0.0, 0.0, 0.0, 0.0, 0.0, 1.6776158982250843E9, 0.0, 2023-02-28 12:24:58.225
86.0, 26293.809866167292, -4442.185693047725, 16745.61402149368, -3377.929732552735, 15242.861538274472, 7515.550555652447, -187500.02235174447, -187500.02235174447, -0.192, -0.782, -0.618, 192.0, 0.0, 0.0, 0.0, 0.0, 0.0, 0.0, 0.0, 0.0, 0.0, 1.6776158982291508E9, 0.0, 2023-02-28 12:24:58.229
87.0, 26261.95863031848, -4442.968004103662, 16578.981766579363, -3375.292226707009, 15154.19216802027, 7425.227156308551, -187500.02235174447, -187500.02235174447, -0.192, -0.782, -0.618, 192.0, 0.0, 0.0, 0.0, 0.0, 0.0, 0.0, 0.0, 0.0, 0.0, 1.677615898233307E9, 0.0, 2023-02-28 12:24:58.233
88.0, 26217.94804548598, -4443.549149459499, 16366.170807620385, -3374.1522877397883, 15039.773588153552, 7356.137914197197, -187500.02235174447, -187500.02235174447, -0.192, -0.782, -0.618, 192.0, 0.0, 0.0, 0.0, 0.0, 0.0, 0.0, 0.0, 0.0, 0.0, 1.6776158982373514E9, 0.0, 2023-02-28 12:24:58.237
89.0, 26243.943124287503, -4443.526797715044, 16502.136469142017, -3376.834497074425, 15108.996940731638, 7437.945298903621, -187500.02235174447, -187500.02235174447, -0.192, -0.782, -0.618, 192.0, 0.0, 0.0, 0.0, 0.0, 0.0, 0.0, 0.0, 0.0, 0.0, 1.6776158982402196E9, 0.0, 2023-02-28 12:24:58.240
90.0, 26277.984831092934, -4441.135161058326, 16737.477986511945, -3378.3991191862965, 15227.751759022685, 7526.6593726467345, -187500.02235174447, -187500.02235174447, -0.192, -0.782, -0.618, 192.0, 0.0, 0.0, 0.0, 0.0, 0.0, 0.0, 0.0, 0.0, 0.0, 1.6776158982441149E9, 0.0, 2023-02-28 12:24:58.244
91.0, 26262.651534396595, -4436.016611578061, 16626.680389246987, -3373.548790639495, 15173.660537440843, 7457.301909601916, -187500.02235174447, -187500.02235174447, -0.192, -0.782, -0.618, 192.0, 0.0, 0.0, 0.0, 0.0, 0.0, 0.0, 0.0, 0.0, 0.0, 1.677615898248116E9, 0.0, 2023-02-28 12:24:58.248
92.0, 26237.081138739723, -4434.384934232823, 16380.162999649407, -3370.2183807156543, 15048.513120235577, 7365.145667212685, -187500.02235174447, -187500.02235174447, -0.192, -0.782, -0.618, 192.0, 0.0, 0.0, 0.0, 0.0, 0.0, 0.0, 0.0, 0.0, 0.0, 1.677615898253146E9, 0.0, 2023-02-28 12:24:58.253
93.0, 26267.72538038795, -4438.050620323494, 16452.515596451234, -3373.6605493617717, 15081.258425862603, 7420.488586484026, -187500.02235174447, -187500.02235174447, -0.192, -0.782, -0.618, 192.0, 0.0, 0.0, 0.0, 0.0, 0.0, 0.0, 0.0, 0.0, 0.0, 1.677615898257138E9, 0.0, 2023-02-28 12:24:58.257
94.0, 26297.229683068956, -4440.062277324471, 16710.58883793221, -3376.320406951953, 15211.658503014864, 7521.473767933103, -187500.02235174447, -187500.02235174447, -0.184, -0.774, -0.614, 192.0, 250.0, 64.0, 231.0, 208.0, 236.0, 208.0, 0.0, 0.0, 0.0, 1.677615898262122E9, 0.0, 2023-02-28 12:24:58.262
95.0, 26279.19182529352, -4437.4694749676555, 16668.05346823376, -3372.9229417947463, 15190.133773104404, 7476.4126511112045, -187500.02235174447, -187500.02235174447, -0.184, -0.774, -0.614, 192.0, 0.0, 0.0, 0.0, 0.0, 0.0, 0.0, 0.0, 0.0, 0.0, 1.6776158982651207E9, 0.0, 2023-02-28 12:24:58.265
96.0, 26239.38336841862, -4433.40145747679, 16404.280531916684, -3368.9890347706123, 15059.532530252043, 7372.298225438384, -187500.02235174447, -187500.02235174447, -0.184, -0.774, -0.614, 192.0, 0.0, 0.0, 0.0, 0.0, 0.0, 0.0, 0.0, 0.0, 0.0, 1.677615898269215E9, 0.0, 2023-02-28 12:24:58.269
97.0, 26246.781795833325, -4429.6016609193875, 16409.73435756378, -3369.8831045488246, 15063.868768676373, 7402.540135686414, -187500.02235174447, -187500.02235174447, -0.184, -0.774, -0.614, 192.0, 0.0, 0.0, 0.0, 0.0, 0.0, 0.0, 0.0, 0.0, 0.0, 1.6776158982722588E9, 0.0, 2023-02-28 12:24:58.272
98.0, 26294.793342923327, -4426.584175417921, 16674.49077063689, -3372.297092949998, 15200.706148231764, 7513.427139929193, -187500.02235174447, -187500.02235174447, -0.184, -0.774, -0.614, 192.0, 0.0, 0.0, 0.0, 0.0, 0.0, 0.0, 0.0, 0.0, 0.0, 1.677615898276271E9, 0.0, 2023-02-28 12:24:58.276
99.0, 26312.764145465393, -4424.594870161399, 16699.524724426832, -3369.3690144263524, 15216.486479817211, 7499.032616499975, -187500.02235174447, -187500.02235174447, -0.184, -0.774, -0.614, 192.0, 0.0, 0.0, 0.0, 0.0, 0.0, 0.0, 0.0, 0.0, 0.0, 1.6776158982801995E9, 0.0, 2023-02-28 12:24:58.280
100.0, 26283.885691629137, -4424.863091094862, 16438.590459655577, -3366.418584158252, 15081.973681685173, 7386.804507589878, -187500.02235174447, -187500.02235174447, -0.184, -0.774, -0.614, 192.0, 0.0, 0.0, 0.0, 0.0, 0.0, 0.0, 0.0, 0.0, 0.0, 1.6776158982852228E9, 0.0, 2023-02-28 12:24:58.285
101.0, 26265.646668153608, -4422.404399204779, 16377.14551414794, -3366.5973981138945, 15051.754123181598, 7387.206838990073, -187500.02235174447, -187500.02235174447, -0.184, -0.774, -0.614, 192.0, 0.0, 0.0, 0.0, 0.0, 0.0, 0.0, 0.0, 0.0, 0.0, 1.6776158982892425E9, 0.0, 2023-02-28 12:24:58.289
102.0, 26296.82735166876, -4421.353867215379, 16630.323723593203, -3368.7878690705147, 15185.90929340235, 7500.083148489374, -187500.02235174447, -187500.02235174447, -0.184, -0.774, -0.614, 192.0, 0.0, 0.0, 0.0, 0.0, 0.0, 0.0, 0.0, 0.0, 0.0, 1.6776158982932165E9, 0.0, 2023-02-28 12:24:58.293
103.0, 26304.896331417123, -4420.3256869704355, 16723.821070649752, -3367.9385027812127, 15235.038427715115, 7513.337732951371, -187500.02235174447, -187500.02235174447, -0.184, -0.774, -0.614, 192.0, 0.0, 0.0, 0.0, 0.0, 0.0, 0.0, 0.0, 0.0, 0.0, 1.67761589829726E9, 0.0, 2023-02-28 12:24:58.297
104.0, 26267.367752476664, -4419.990410803605, 16480.812904931656, -3365.5692178689505, 15113.266123922602, 7400.528478685436, -187500.02235174447, -187500.02235174447, -0.184, -0.776, -0.612, 192.0, 250.0, 64.0, 231.0, 192.0, 236.0, 224.0, 0.0, 0.0, 0.0, 1.6776158983002646E9, 0.0, 2023-02-28 12:24:58.300
105.0, 26266.987772820925, -4420.012762548061, 16358.459455783304, -3366.150363224788, 15053.184634826737, 7374.823972561833, -187500.02235174447, -187500.02235174447, -0.184, -0.776, -0.612, 192.0, 0.0, 0.0, 0.0, 0.0, 0.0, 0.0, 0.0, 0.0, 0.0, 1.6776158983042736E9, 0.0, 2023-02-28 12:24:58.304
106.0, 26312.25005534292, -4420.728018370631, 16582.84861837013, -3369.9054562932797, 15169.748982161163, 7481.91118024721, -187500.02235174447, -187500.02235174447, -0.184, -0.776, -0.612, 192.0, 0.0, 0.0, 0.0, 0.0, 0.0, 0.0, 0.0, 0.0, 0.0, 1.6776158983082588E9, 0.0, 2023-02-28 12:24:58.308
107.0, 26334.333578864764, -4416.727056113131, 16734.5499079883, -3368.318482436953, 15250.952869767294, 7521.853747588843, -187500.02235174447, -187500.02235174447, -0.184, -0.776, -0.612, 192.0, 0.0, 0.0, 0.0, 0.0, 0.0, 0.0, 0.0, 0.0, 0.0, 1.6776158983122134E9, 0.0, 2023-02-28 12:24:58.312
108.0, 26298.235511569444, -4412.770797344541, 16524.3988066195, -3363.4010986567855, 15146.391409205367, 7416.331162015339, -187500.02235174447, -187500.02235174447, -0.184, -0.776, -0.612, 192.0, 0.0, 0.0, 0.0, 0.0, 0.0, 0.0, 0.0, 0.0, 0.0, 1.6776158983172529E9, 0.0, 2023-02-28 12:24:58.317
109.0, 26274.095627557712, -4413.01666653355, 16348.781150434155, -3363.244636445598, 15057.990259884627, 7361.7705537999345, -187500.02235174447, -187500.02235174447, -0.184, -0.776, -0.612, 192.0, 0.0, 0.0, 0.0, 0.0, 0.0, 0.0, 0.0, 0.0, 0.0, 1.6776158983202903E9, 0.0, 2023-02-28 12:24:58.320
110.0, 26306.282139573355, -4414.067198522949, 16530.813757278178, -3366.8209155584477, 15152.225214508202, 7456.407839823704, -187500.02235174447, -187500.02235174447, -0.184, -0.776, -0.612, 192.0, 0.0, 0.0, 0.0, 0.0, 0.0, 0.0, 0.0, 0.0, 0.0, 1.677615898324246E9, 0.0, 2023-02-28 12:24:58.324
111.0, 26332.992474197446, -4413.463701422656, 16733.27585855435, -3367.37970916983, 15255.937308780827, 7523.8430528453655, -187500.02235174447, -187500.02235174447, -0.184, -0.776, -0.612, 192.0, 0.0, 0.0, 0.0, 0.0, 0.0, 0.0, 0.0, 0.0, 0.0, 1.677615898328261E9, 0.0, 2023-02-28 12:24:58.328
112.0, 26303.890502916638, -4411.072064765938, 16572.70092638742, -3363.646967845794, 15176.38745026439, 7433.251432568006, -187500.02235174447, -187500.02235174447, -0.184, -0.776, -0.612, 192.0, 0.0, 0.0, 0.0, 0.0, 0.0, 0.0, 0.0, 0.0, 0.0, 1.6776158983323047E9, 0.0, 2023-02-28 12:24:58.332
113.0, 26275.570842691763, -4409.328628698424, 16353.832644681055, -3361.7917730560034, 15062.237091331137, 7358.082515964808, -187500.02235174447, -187500.02235174447, -0.184, -0.776, -0.612, 192.0, 0.0, 0.0, 0.0, 0.0, 0.0, 0.0, 0.0, 0.0, 0.0, 1.6776158983363037E9, 0.0, 2023-02-28 12:24:58.336
114.0, 26304.49400001693, -4410.535622899011, 16481.08112586512, -3364.898665535291, 15127.191260718258, 7434.078447112853, -187500.02235174447, -187500.02235174447, -0.182, -0.778, -0.608, 192.0, 250.0, 80.0, 231.0, 176.0, 237.0, 0.0, 0.0, 0.0, 0.0, 1.6776158983412025E9, 0.0, 2023-02-28 12:24:58.341
115.0, 26353.69018956306, -4408.143986242293, 16719.484832225422, -3365.323348679942, 15252.472788390254, 7523.485424934081, -187500.02235174447, -187500.02235174447, -0.182, -0.778, -0.608, 192.0, 0.0, 0.0, 0.0, 0.0, 0.0, 0.0, 0.0, 0.0, 0.0, 1.6776158983452427E9, 0.0, 2023-02-28 12:24:58.345
116.0, 26345.576506325782, -4405.573535629933, 16619.39372055456, -3361.9482352671907, 15202.315473832545, 7459.402973580715, -187500.02235174447, -187500.02235174447, -0.182, -0.778, -0.608, 192.0, 0.0, 0.0, 0.0, 0.0, 0.0, 0.0, 0.0, 0.0, 0.0, 1.6776158983482544E9, 0.0, 2023-02-28 12:24:58.348
117.0, 26311.355985564707, -4406.177032730226, 16374.016269924197, -3361.0541654889785, 15075.089344392938, 7366.6432340911915, -187500.02235174447, -187500.02235174447, -0.182, -0.778, -0.608, 192.0, 0.0, 0.0, 0.0, 0.0, 0.0, 0.0, 0.0, 0.0, 0.0, 1.6776158983522897E9, 0.0, 2023-02-28 12:24:58.352
118.0, 26323.269465359386, -4409.798015331986, 16437.606982899546, -3364.9433690242017, 15104.213667418202, 7417.001714348998, -187500.02235174447, -187500.02235174447, -0.182, -0.778, -0.608, 192.0, 0.0, 0.0, 0.0, 0.0, 0.0, 0.0, 0.0, 0.0, 0.0, 1.6776158983562315E9, 0.0, 2023-02-28 12:24:58.356
119.0, 26349.421006372097, -4411.496747910589, 16698.563599415254, -3368.5419998815064, 15234.792558526107, 7520.110311521329, -187500.02235174447, -187500.02235174447, -0.182, -0.778, -0.608, 192.0, 0.0, 0.0, 0.0, 0.0, 0.0, 0.0, 0.0, 0.0, 0.0, 1.677615898360238E9, 0.0, 2023-02-28 12:24:58.360
120.0, 26334.333578864764, -4409.798015331986, 16665.661831577043, -3365.9491975246906, 15219.883944974417, 7477.23966565605, -187500.02235174447, -187500.02235174447, -0.182, -0.778, -0.608, 192.0, 0.0, 0.0, 0.0, 0.0, 0.0, 0.0, 0.0, 0.0, 0.0, 1.677615898364256E9, 0.0, 2023-02-28 12:24:58.364
121.0, 26298.235511569444, -4407.138157741804, 16402.894723760455, -3362.4399736452074, 15086.824010231974, 7368.207856203063, -187500.02235174447, -187500.02235174447, -0.182, -0.778, -0.608, 192.0, 0.0, 0.0, 0.0, 0.0, 0.0, 0.0, 0.0, 0.0, 0.0, 1.6776158983683195E9, 0.0, 2023-02-28 12:24:58.368
122.0, 26303.26465407189, -4409.485090909611, 16399.407851625427, -3364.3175201794534, 15081.973681685173, 7395.7005018830905, -187500.02235174447, -187500.02235174447, -0.182, -0.778, -0.608, 192.0, 0.0, 0.0, 0.0, 0.0, 0.0, 0.0, 0.0, 0.0, 0.0, 1.6776158983732662E9, 0.0, 2023-02-28 12:24:58.373
123.0, 26340.25679114542, -4409.708608354164, 16663.650174576065, -3366.7538603250814, 15215.279485616624, 7510.655523616734, -187500.02235174447, -187500.02235174447, -0.182, -0.778, -0.608, 192.0, 0.0, 0.0, 0.0, 0.0, 0.0, 0.0, 0.0, 0.0, 0.0, 1.6776158983763392E9, 0.0, 2023-02-28 12:24:58.376
124.0, 26336.568753310294, -4408.568669386944, 16700.664663394055, -3365.166886468755, 15233.071474203049, 7500.083148489374, -187500.02235174447, -187500.02235174447, -0.182, -0.778, -0.608, 192.0, 0.0, 0.0, 0.0, 0.0, 0.0, 0.0, 0.0, 0.0, 0.0, 1.677615898380273E9, 0.0, 2023-02-28 12:24:58.380
125.0, 26289.67479344306, -4409.261573465058, 16439.953916067352, -3362.261159689565, 15099.69861503823, 7388.838516335311, -187500.02235174447, -187500.02235174447, -0.18, -0.78, -0.61, 192.0, 250.0, 96.0, 231.0, 160.0, 236.0, 240.0, 0.0, 0.0, 0.0, 1.677615898384305E9, 0.0, 2023-02-28 12:24:58.384
126.0, 26281.561110205785, -4410.870899065841, 16369.657679755412, -3363.199932956688, 15062.013573886583, 7386.648045378691, -187500.02235174447, -187500.02235174447, -0.18, -0.78, -0.61, 192.0, 0.0, 0.0, 0.0, 0.0, 0.0, 0.0, 0.0, 0.0, 0.0, 1.6776158983883214E9, 0.0, 2023-02-28 12:24:58.388
127.0, 26328.96916019549, -4411.273230466036, 16619.483127532378, -3365.323348679942, 15189.217351581736, 7498.965561266609, -187500.02235174447, -187500.02235174447, -0.18, -0.78, -0.61, 192.0, 0.0, 0.0, 0.0, 0.0, 0.0, 0.0, 0.0, 0.0, 0.0, 1.677615898392335E9, 0.0, 2023-02-28 12:24:58.392
128.0, 26345.621209814693, -4409.932125798718, 16720.758881659374, -3364.205761457177, 15244.202642941791, 7514.947058552153, -187500.02235174447, -187500.02235174447, -0.18, -0.78, -0.61, 192.0, 0.0, 0.0, 0.0, 0.0, 0.0, 0.0, 0.0, 0.0, 0.0, 1.6776158983962996E9, 0.0, 2023-02-28 12:24:58.396
129.0, 26304.04696512782, -4408.479262409122, 16481.46110552086, -3360.964758511157, 15126.386597917868, 7402.540135686414, -187500.02235174447, -187500.02235174447, -0.18, -0.78, -0.61, 192.0, 0.0, 0.0, 0.0, 0.0, 0.0, 0.0, 0.0, 0.0, 0.0, 1.67761589840136E9, 0.0, 2023-02-28 12:24:58.401
130.0, 26291.753505677403, -4406.4899571526, 16352.737409202744, -3361.7247178226376, 15060.4042482858, 7372.40998416066, -187500.02235174447, -187500.02235174447, -0.18, -0.78, -0.61, 192.0, 0.0, 0.0, 0.0, 0.0, 0.0, 0.0, 0.0, 0.0, 0.0, 1.6776158984042923E9, 0.0, 2023-02-28 12:24:58.404
131.0, 26333.998302697935, -4406.154680985771, 16573.639699654545, -3364.965720768657, 15171.425362995311, 7479.810116268411, -187500.02235174447, -187500.02235174447, -0.18, -0.78, -0.61, 192.0, 0.0, 0.0, 0.0, 0.0, 0.0, 0.0, 0.0, 0.0, 0.0, 1.677615898408286E9, 0.0, 2023-02-28 12:24:58.408
132.0, 26356.171233197598, -4405.662942607754, 16735.64514346661, -3365.0104242575676, 15253.63507910193, 7528.15693952524, -187500.02235174447, -187500.02235174447, -0.18, -0.78, -0.61, 192.0, 0.0, 0.0, 0.0, 0.0, 0.0, 0.0, 0.0, 0.0, 0.0, 1.6776158984123323E9, 0.0, 2023-02-28 12:24:58.412
133.0, 26319.82729671327, -4404.321837940435, 16533.920649757463, -3361.680014333727, 15151.867586596918, 7424.020162107964, -187500.02235174447, -187500.02235174447, -0.18, -0.78, -0.61, 192.0, 0.0, 0.0, 0.0, 0.0, 0.0, 0.0, 0.0, 0.0, 0.0, 1.677615898416312E9, 0.0, 2023-02-28 12:24:58.416
134.0, 26292.424058011064, -4406.869936808341, 16351.597470235523, -3362.28351143402, 15058.54905349601, 7362.798734044878, -187500.02235174447, -187500.02235174447, -0.18, -0.78, -0.61, 192.0, 0.0, 0.0, 0.0, 0.0, 0.0, 0.0, 0.0, 0.0, 0.0, 1.6776158984204924E9, 0.0, 2023-02-28 12:24:58.420
135.0, 26326.24224737194, -4407.16050948626, 16526.723388042854, -3364.742203324104, 15147.419589450312, 7457.525427046469, -187500.02235174447, -187500.02235174447, -0.18, -0.778, -0.616, 192.0, 250.0, 96.0, 231.0, 176.0, 236.0, 192.0, 0.0, 0.0, 0.0, 1.6776158984244654E9, 0.0, 2023-02-28 12:24:58.424
136.0, 26359.680457077084, -4404.813576318452, 16735.48868125542, -3364.876313790836, 15256.026715758648, 7530.928555837698, -187500.02235174447, -187500.02235174447, -0.18, -0.778, -0.616, 192.0, 0.0, 0.0, 0.0, 0.0, 0.0, 0.0, 0.0, 0.0, 0.0, 1.6776158984293685E9, 0.0, 2023-02-28 12:24:58.429
137.0, 26335.36175910971, -4399.58326811591, 16582.04395556974, -3359.221322443643, 15182.936511389795, 7447.578900763858, -187500.02235174447, -187500.02235174447, -0.18, -0.778, -0.616, 192.0, 0.0, 0.0, 0.0, 0.0, 0.0, 0.0, 0.0, 0.0, 0.0, 1.6776158984323547E9, 0.0, 2023-02-28 12:24:58.432
138.0, 26302.81761918278, -4398.398625659779, 16356.447798782327, -3357.9249212652353, 15067.60151000041, 7370.711251582057, -187500.02235174447, -187500.02235174447, -0.18, -0.778, -0.616, 192.0, 0.0, 0.0, 0.0, 0.0, 0.0, 0.0, 0.0, 0.0, 0.0, 1.6776158984363668E9, 0.0, 2023-02-28 12:24:58.436
139.0, 26327.49394506144, -4399.359750671358, 16473.861512406052, -3360.8529997888804, 15127.23596420717, 7443.287365828439, -187500.02235174447, -187500.02235174447, -0.18, -0.778, -0.616, 192.0, 0.0, 0.0, 0.0, 0.0, 0.0, 0.0, 0.0, 0.0, 0.0, 1.677615898440398E9, 0.0, 2023-02-28 12:24:58.440
140.0, 26363.3237914233, -4400.29852393848, 16717.003788590882, -3362.61878760085, 15252.137512223426, 7536.15886404024, -187500.02235174447, -187500.02235174447, -0.18, -0.778, -0.616, 192.0, 0.0, 0.0, 0.0, 0.0, 0.0, 0.0, 0.0, 0.0, 0.0, 1.6776158984443576E9, 0.0, 2023-02-28 12:24:58.444
141.0, 26339.87681148968, -4401.505518139067, 16627.283886347283, -3360.7859445555146, 15206.405843067867, 7470.869418486288, -187500.02235174447, -187500.02235174447, -0.18, -0.778, -0.616, 192.0, 0.0, 0.0, 0.0, 0.0, 0.0, 0.0, 0.0, 0.0, 0.0, 1.677615898448344E9, 0.0, 2023-02-28 12:24:58.448
142.0, 26296.156799335102, -4405.059445507461, 16376.09498215854, -3359.958930010668, 15080.36435608439, 7371.471210893537, -187500.02235174447, -187500.02235174447, -0.18, -0.778, -0.616, 192.0, 0.0, 0.0, 0.0, 0.0, 0.0, 0.0, 0.0, 0.0, 0.0, 1.6776158984523692E9, 0.0, 2023-02-28 12:24:58.452
143.0, 26306.885636673647, -4409.306276953969, 16429.8285758291, -3363.0881742344113, 15105.353606385424, 7419.907441128188, -187500.02235174447, -187500.02235174447, -0.18, -0.778, -0.616, 192.0, 0.0, 0.0, 0.0, 0.0, 0.0, 0.0, 0.0, 0.0, 0.0, 1.6776158984564073E9, 0.0, 2023-02-28 12:24:58.456
144.0, 26346.425872615084, -4411.697913610687, 16692.461573178956, -3366.5303428805287, 15235.552517837586, 7525.273564490505, -187500.02235174447, -187500.02235174447, -0.18, -0.778, -0.616, 192.0, 0.0, 0.0, 0.0, 0.0, 0.0, 0.0, 0.0, 0.0, 0.0, 1.6776158984604337E9, 0.0, 2023-02-28 12:24:58.460
