%OpenBCI Raw EEG Data
%Number of channels = 8
%Sample Rate = 250 Hz
%Board = OpenBCI_GUI$BoardCytonSerial
Sample Index, EXG Channel 0, EXG Channel 1, EXG Channel 2, EXG Channel 3, EXG Channel 4, EXG Channel 5, EXG Channel 6, EXG Channel 7, Accel Channel 0, Accel Channel 1, Accel Channel 2, Other, Other, Other, Other, Other, Other, Other, Analog Channel 0, Analog Channel 1, Analog Channel 2, Timestamp, Other, Timestamp (Formatted)
23.0, 27371.02983844636, -4160.933692566597, 15593.403946567054, -3153.0041280989803, 15407.10215653207, 7780.284616981104, -187500.02235174447, -187500.02235174447, 0.0, 0.0, 0.0, 192.0, 0.0, 0.0, 0.0, 0.0, 0.0, 0.0, 0.0, 0.0, 0.0, 1.677615001696055E9, 0.0, 2023-02-28 12:10:01.696
24.0, 27232.650188523556, -4158.497352420968, 14852.041286473428, -3140.3306889928213, 15021.534564678022, 7423.6401824522245, -187500.02235174447, -187500.02235174447, 0.0, 0.0, 0.0, 192.0, 0.0, 0.0, 0.0, 0.0, 0.0, 0.0, 0.0, 0.0, 0.0, 1.6776150016960802E9, 0.0, 2023-02-28 12:10:01.696
25.0, 27181.934080354462, -4158.564407654334, 14442.870252474577, -3141.33651749331, 14799.447631770092, 7329.44993131756, -187500.02235174447, -187500.02235174447, 0.0, 0.0, 0.0, 192.0, 0.0, 0.0, 0.0, 0.0, 0.0, 0.0, 0.0, 0.0, 0.0, 1.6776150016960955E9, 0.0, 2023-02-28 12:10:01.696
26.0, 27313.049413329296, -4159.659643132644, 15118.27291468059, -3152.467686232053, 15158.371944233411, 7669.688185416244, -187500.02235174447, -187500.02235174447, 0.0, 0.0, 0.0, 192.0, 0.0, 0.0, 0.0, 0.0, 0.0, 0.0, 0.0, 0.0, 0.0, 1.6776150016961095E9, 0.0, 2023-02-28 12:10:01.696
0.0, 0.0, 0.0, 0.0, 0.0, 0.0, 0.0, 0.0, 0.0, -0.21, -0.774, -0.612, 192.0, 249.0, 112.0, 231.0, 208.0, 236.0, 224.0, 0.0, 0.0, 0.0, 1.6776150017766576E9, 0.0, 2023-02-28 12:10:01.776
1.0, 27807.939387314247, -4196.562373228357, 15141.876356825394, -3185.6153232592733, 15073.502370536611, 7557.951814884164, -187500.02235174447, -187500.02235174447, -0.21, -0.774, -0.612, 192.0, 0.0, 0.0, 0.0, 0.0, 0.0, 0.0, 0.0, 0.0, 0.0, 1.677615001792653E9, 0.0, 2023-02-28 12:10:01.792
2.0, 27912.120868220434, -4199.758672685465, 15789.78637335138, -3188.4763465495525, 15410.611380411552, 7773.400279688869, -187500.02235174447, -187500.02235174447, -0.21, -0.774, -0.612, 192.0, 0.0, 0.0, 0.0, 0.0, 0.0, 0.0, 0.0, 0.0, 0.0, 1.6776150017986531E9, 0.0, 2023-02-28 12:10:01.798
3.0, 27810.018099548593, -4199.713969196555, 15318.835117678062, -3177.9933784000136, 15169.212540294237, 7503.905296791232, -187500.02235174447, -187500.02235174447, -0.21, -0.774, -0.612, 192.0, 0.0, 0.0, 0.0, 0.0, 0.0, 0.0, 0.0, 0.0, 0.0, 1.6776150018015976E9, 0.0, 2023-02-28 12:10:01.801
4.0, 27696.135961548804, -4200.809204674864, 14622.108891261685, -3174.595913242807, 14806.086099873317, 7258.371383949684, -187500.02235174447, -187500.02235174447, -0.21, -0.774, -0.612, 192.0, 0.0, 0.0, 0.0, 0.0, 0.0, 0.0, 0.0, 0.0, 0.0, 1.6776150018056924E9, 0.0, 2023-02-28 12:10:01.805
5.0, 27796.271776708578, -4202.30677155337, 14988.766907306543, -3184.2742185919547, 14989.504514873566, 7490.024863484486, -187500.02235174447, -187500.02235174447, -0.21, -0.774, -0.612, 192.0, 0.0, 0.0, 0.0, 0.0, 0.0, 0.0, 0.0, 0.0, 0.0, 1.6776150018086872E9, 0.0, 2023-02-28 12:10:01.808
6.0, 27913.10434497647, -4202.060902364362, 15743.495910584441, -3189.01278841648, 15381.799981808661, 7772.126230254917, -187500.02235174447, -187500.02235174447, -0.21, -0.774, -0.612, 192.0, 0.0, 0.0, 0.0, 0.0, 0.0, 0.0, 0.0, 0.0, 0.0, 1.6776150018126416E9, 0.0, 2023-02-28 12:10:01.812
7.0, 27837.622503950897, -4199.579858729823, 15463.92029093746, -3179.91562842317, 15242.526262107644, 7568.725355711622, -187500.02235174447, -187500.02235174447, -0.21, -0.774, -0.612, 192.0, 0.0, 0.0, 0.0, 0.0, 0.0, 0.0, 0.0, 0.0, 0.0, 1.677615001816661E9, 0.0, 2023-02-28 12:10:01.816
8.0, 27721.996929883593, -4199.333989540814, 14683.28561583586, -3174.9311894096363, 14836.372713610259, 7264.004023552421, -187500.02235174447, -187500.02235174447, -0.214, -0.784, -0.612, 192.0, 249.0, 80.0, 231.0, 128.0, 236.0, 224.0, 0.0, 0.0, 0.0, 1.6776150018208685E9, 0.0, 2023-02-28 12:10:01.820
9.0, 27768.890889750826, -4202.753806442476, 14853.427094629658, -3183.2460383470107, 14916.637827949266, 7420.510938228481, -187500.02235174447, -187500.02235174447, -0.214, -0.784, -0.612, 192.0, 0.0, 0.0, 0.0, 0.0, 0.0, 0.0, 0.0, 0.0, 0.0, 1.6776150018257215E9, 0.0, 2023-02-28 12:10:01.825
10.0, 27888.830350498003, -4202.9102686536635, 15663.186092756521, -3189.5492302834073, 15336.4706440533, 7750.690907322277, -187500.02235174447, -187500.02235174447, -0.214, -0.784, -0.612, 192.0, 0.0, 0.0, 0.0, 0.0, 0.0, 0.0, 0.0, 0.0, 0.0, 1.6776150018287845E9, 0.0, 2023-02-28 12:10:01.828
11.0, 27837.443689995252, -4201.077425608329, 15591.03466165479, -3181.6367127462286, 15306.295789038633, 7633.7242285876555, -187500.02235174447, -187500.02235174447, -0.214, -0.784, -0.612, 192.0, 0.0, 0.0, 0.0, 0.0, 0.0, 0.0, 0.0, 0.0, 0.0, 1.677615001833717E9, 0.0, 2023-02-28 12:10:01.833
12.0, 27700.047516828483, -4199.088120351806, 14772.133800045705, -3172.941884153114, 14881.880865321264, 7294.8717826452, -187500.02235174447, -187500.02235174447, -0.214, -0.784, -0.612, 192.0, 0.0, 0.0, 0.0, 0.0, 0.0, 0.0, 0.0, 0.0, 0.0, 1.6776150018367205E9, 0.0, 2023-02-28 12:10:01.836
13.0, 27723.069813617447, -4200.540983741401, 14736.639229850678, -3178.7309859670386, 14855.058771974895, 7369.3477951702835, -187500.02235174447, -187500.02235174447, -0.214, -0.784, -0.612, 192.0, 0.0, 0.0, 0.0, 0.0, 0.0, 0.0, 0.0, 0.0, 0.0, 1.6776150018396688E9, 0.0, 2023-02-28 12:10:01.839
14.0, 27869.250222355156, -4202.597344231289, 15551.092094313157, -3188.074015149357, 15275.11510552348, 7720.046665674051, -187500.02235174447, -187500.02235174447, -0.214, -0.784, -0.612, 192.0, 0.0, 0.0, 0.0, 0.0, 0.0, 0.0, 0.0, 0.0, 0.0, 1.6776150018436863E9, 0.0, 2023-02-28 12:10:01.843
15.0, 27878.906175959848, -4202.150309342183, 15690.187000058533, -3183.6036662582956, 15353.927356472894, 7688.217781569694, -187500.02235174447, -187500.02235174447, -0.214, -0.784, -0.612, 192.0, 0.0, 0.0, 0.0, 0.0, 0.0, 0.0, 0.0, 0.0, 0.0, 1.6776150018476777E9, 0.0, 2023-02-28 12:10:01.847
16.0, 27748.21552612967, -4199.579858729823, 14890.75450787002, -3174.2159335870665, 14939.57071776041, 7333.674411019613, -187500.02235174447, -187500.02235174447, -0.214, -0.784, -0.612, 192.0, 0.0, 0.0, 0.0, 0.0, 0.0, 0.0, 0.0, 0.0, 0.0, 1.677615001851683E9, 0.0, 2023-02-28 12:10:01.851
17.0, 27715.403165269276, -4199.691617452099, 14651.054400331308, -3177.322826066354, 14809.774137708442, 7317.424692800605, -187500.02235174447, -187500.02235174447, -0.214, -0.784, -0.612, 192.0, 0.0, 0.0, 0.0, 0.0, 0.0, 0.0, 0.0, 0.0, 0.0, 1.6776150018557117E9, 0.0, 2023-02-28 12:10:01.855
18.0, 27842.98692262017, -4201.703274453077, 15415.037025813703, -3186.621151759762, 15206.539953534599, 7666.424830725769, -187500.02235174447, -187500.02235174447, -0.216, -0.784, -0.61, 192.0, 249.0, 64.0, 231.0, 128.0, 236.0, 240.0, 0.0, 0.0, 0.0, 1.6776150018608797E9, 0.0, 2023-02-28 12:10:01.860
19.0, 27890.193806909778, -4201.993847130996, 15755.722314801493, -3183.871887191759, 15388.90783654545, 7726.10398842144, -187500.02235174447, -187500.02235174447, -0.216, -0.784, -0.61, 192.0, 0.0, 0.0, 0.0, 0.0, 0.0, 0.0, 0.0, 0.0, 0.0, 1.677615001863675E9, 0.0, 2023-02-28 12:10:01.863
20.0, 27770.477863607153, -4199.468100007546, 15028.441253714713, -3172.494849264008, 15012.72797736263, 7382.289455209906, -187500.02235174447, -187500.02235174447, -0.216, -0.784, -0.61, 192.0, 0.0, 0.0, 0.0, 0.0, 0.0, 0.0, 0.0, 0.0, 0.0, 1.6776150018676903E9, 0.0, 2023-02-28 12:10:01.867
21.0, 27708.51882797704, -4198.842251162798, 14600.31594041776, -3173.880657420237, 14784.539018218402, 7280.253741771429, -187500.02235174447, -187500.02235174447, -0.216, -0.784, -0.61, 192.0, 0.0, 0.0, 0.0, 0.0, 0.0, 0.0, 0.0, 0.0, 0.0, 1.6776150018716753E9, 0.0, 2023-02-28 12:10:01.871
22.0, 27815.538980429053, -4201.099777352783, 15263.179273984346, -3184.7659569699717, 15125.89485953985, 7608.802033519988, -187500.02235174447, -187500.02235174447, -0.216, -0.784, -0.61, 192.0, 0.0, 0.0, 0.0, 0.0, 0.0, 0.0, 0.0, 0.0, 0.0, 1.6776150018757236E9, 0.0, 2023-02-28 12:10:01.875
23.0, 27890.596138309975, -4202.999675631485, 15786.902998316647, -3185.4812127925416, 15401.871848329527, 7757.776410314609, -187500.02235174447, -187500.02235174447, -0.216, -0.784, -0.61, 192.0, 0.0, 0.0, 0.0, 0.0, 0.0, 0.0, 0.0, 0.0, 0.0, 1.6776150018797371E9, 0.0, 2023-02-28 12:10:01.879
24.0, 27783.844206791426, -4201.256239563971, 15181.707165444752, -3175.1100033652788, 15093.015443446095, 7446.327203074361, -187500.02235174447, -187500.02235174447, -0.216, -0.784, -0.61, 192.0, 0.0, 0.0, 0.0, 0.0, 0.0, 0.0, 0.0, 0.0, 0.0, 1.6776150018836787E9, 0.0, 2023-02-28 12:10:01.883
25.0, 27702.282691274013, -4199.691617452099, 14592.336367647216, -3174.4841545205304, 14783.510837973457, 7262.43940144055, -187500.02235174447, -187500.02235174447, -0.216, -0.784, -0.61, 192.0, 0.0, 0.0, 0.0, 0.0, 0.0, 0.0, 0.0, 0.0, 0.0, 1.677615001887828E9, 0.0, 2023-02-28 12:10:01.887
26.0, 27798.529302898565, -4201.882088408719, 15110.516859354599, -3185.39180581472, 15047.037905101528, 7547.804122901455, -187500.02235174447, -187500.02235174447, -0.216, -0.784, -0.61, 192.0, 0.0, 0.0, 0.0, 0.0, 0.0, 0.0, 0.0, 0.0, 0.0, 1.6776150018927588E9, 0.0, 2023-02-28 12:10:01.892
27.0, 27898.687469802797, -4200.920963397141, 15776.710602845027, -3187.0234831599573, 15398.183810494402, 7776.037785534595, -187500.02235174447, -187500.02235174447, -0.216, -0.784, -0.61, 192.0, 0.0, 0.0, 0.0, 0.0, 0.0, 0.0, 0.0, 0.0, 0.0, 1.6776150018968978E9, 0.0, 2023-02-28 12:10:01.896
28.0, 27812.3650327164, -4201.54681224189, 15332.782606218172, -3176.7416807105164, 15171.71593567323, 7514.052988773941, -187500.02235174447, -187500.02235174447, -0.212, -0.788, -0.606, 192.0, 249.0, 96.0, 231.0, 96.0, 237.0, 16.0, 0.0, 0.0, 0.0, 1.677615001899701E9, 0.0, 2023-02-28 12:10:01.899
29.0, 27708.96586286615, -4203.044379120395, 14619.806661582788, -3173.7018434645947, 14796.586608479813, 7255.219787981486, -187500.02235174447, -187500.02235174447, -0.212, -0.788, -0.606, 192.0, 0.0, 0.0, 0.0, 0.0, 0.0, 0.0, 0.0, 0.0, 0.0, 1.677615001903742E9, 0.0, 2023-02-28 12:10:01.903
30.0, 27788.06868649348, -4203.714931454055, 14960.402543592758, -3182.5754860133516, 14965.007002950551, 7476.747927278034, -187500.02235174447, -187500.02235174447, -0.212, -0.788, -0.606, 192.0, 0.0, 0.0, 0.0, 0.0, 0.0, 0.0, 0.0, 0.0, 0.0, 1.6776150019076934E9, 0.0, 2023-02-28 12:10:01.907
31.0, 27898.62041456943, -4205.54777449939, 15728.721407499483, -3187.7610907269827, 15371.160551447934, 7764.414878417836, -187500.02235174447, -187500.02235174447, -0.212, -0.788, -0.606, 192.0, 0.0, 0.0, 0.0, 0.0, 0.0, 0.0, 0.0, 0.0, 0.0, 1.677615001911739E9, 0.0, 2023-02-28 12:10:01.911
32.0, 27821.529247943075, -4202.016198875452, 15477.532503310742, -3177.971026655558, 15250.572890111554, 7571.83224819091, -187500.02235174447, -187500.02235174447, -0.212, -0.788, -0.606, 192.0, 0.0, 0.0, 0.0, 0.0, 0.0, 0.0, 0.0, 0.0, 0.0, 1.6776150019167356E9, 0.0, 2023-02-28 12:10:01.916
33.0, 27697.588824938397, -4200.496280252491, 14683.24091234695, -3171.779593441438, 14835.545699065413, 7260.941834562044, -187500.02235174447, -187500.02235174447, -0.212, -0.788, -0.606, 192.0, 0.0, 0.0, 0.0, 0.0, 0.0, 0.0, 0.0, 0.0, 0.0, 1.6776150019197617E9, 0.0, 2023-02-28 12:10:01.919
34.0, 27752.77528199855, -4203.3796552872245, 14824.280419859937, -3180.6979394791056, 14899.04700506294, 7409.5585834453805, -187500.02235174447, -187500.02235174447, -0.212, -0.788, -0.606, 192.0, 0.0, 0.0, 0.0, 0.0, 0.0, 0.0, 0.0, 0.0, 0.0, 1.6776150019227557E9, 0.0, 2023-02-28 12:10:01.922
35.0, 27894.70885928975, -4205.637181477211, 15646.62345011514, -3189.236305861033, 15325.65239973693, 7744.857102019442, -187500.02235174447, -187500.02235174447, -0.212, -0.788, -0.606, 192.0, 0.0, 0.0, 0.0, 0.0, 0.0, 0.0, 0.0, 0.0, 0.0, 1.6776150019277794E9, 0.0, 2023-02-28 12:10:01.927
36.0, 27848.08312035598, -4204.743111698998, 15604.780984494804, -3181.904933679692, 15309.469736751287, 7640.072124012962, -187500.02235174447, -187500.02235174447, -0.212, -0.788, -0.606, 192.0, 0.0, 0.0, 0.0, 0.0, 0.0, 0.0, 0.0, 0.0, 0.0, 1.677615001931754E9, 0.0, 2023-02-28 12:10:01.931
37.0, 27709.1893803107, -4204.206669832071, 14783.175561806627, -3174.305340564888, 14883.937225811153, 7298.068082102309, -187500.02235174447, -187500.02235174447, -0.212, -0.788, -0.606, 192.0, 0.0, 0.0, 0.0, 0.0, 0.0, 0.0, 0.0, 0.0, 0.0, 1.6776150019357512E9, 0.0, 2023-02-28 12:10:01.935
38.0, 27721.169915338745, -4208.431149534124, 14716.43325286308, -3181.524954023952, 14842.519443335468, 7359.31186190985, -187500.02235174447, -187500.02235174447, -0.212, -0.778, -0.616, 192.0, 249.0, 96.0, 231.0, 176.0, 236.0, 192.0, 0.0, 0.0, 0.0, 1.6776150019397857E9, 0.0, 2023-02-28 12:10:01.939
39.0, 27853.13461460288, -4212.722684469543, 15532.36133245961, -3192.566715784874, 15264.54273039612, 7711.396540569847, -187500.02235174447, -187500.02235174447, -0.212, -0.778, -0.616, 192.0, 0.0, 0.0, 0.0, 0.0, 0.0, 0.0, 0.0, 0.0, 0.0, 1.6776150019437692E9, 0.0, 2023-02-28 12:10:01.943
40.0, 27861.069483884512, -4209.705198968077, 15703.06160486479, -3187.1575936266895, 15360.52112108721, 7692.755185694121, -187500.02235174447, -187500.02235174447, -0.212, -0.778, -0.616, 192.0, 0.0, 0.0, 0.0, 0.0, 0.0, 0.0, 0.0, 0.0, 0.0, 1.6776150019477563E9, 0.0, 2023-02-28 12:10:01.947
41.0, 27734.29038933401, -4209.079350123328, 14908.166516800704, -3177.211067344078, 14952.24415686657, 7337.78713199939, -187500.02235174447, -187500.02235174447, -0.212, -0.778, -0.616, 192.0, 0.0, 0.0, 0.0, 0.0, 0.0, 0.0, 0.0, 0.0, 0.0, 1.677615001951774E9, 0.0, 2023-02-28 12:10:01.951
42.0, 27714.77731642453, -4212.588574002812, 14639.342086236727, -3180.8320499458373, 14807.650721985188, 7306.315875806317, -187500.02235174447, -187500.02235174447, -0.212, -0.778, -0.616, 192.0, 0.0, 0.0, 0.0, 0.0, 0.0, 0.0, 0.0, 0.0, 0.0, 1.6776150019557812E9, 0.0, 2023-02-28 12:10:01.955
43.0, 27833.420375993297, -4212.789739702909, 15395.054566270659, -3191.0915006508235, 15195.632302240409, 7659.7863626225435, -187500.02235174447, -187500.02235174447, -0.212, -0.778, -0.616, 192.0, 0.0, 0.0, 0.0, 0.0, 0.0, 0.0, 0.0, 0.0, 0.0, 1.6776150019598017E9, 0.0, 2023-02-28 12:10:01.959
44.0, 27871.463045056233, -4212.387408302714, 15767.389925407164, -3189.973913428058, 15392.327653447112, 7737.2128054157265, -187500.02235174447, -187500.02235174447, -0.212, -0.778, -0.616, 192.0, 0.0, 0.0, 0.0, 0.0, 0.0, 0.0, 0.0, 0.0, 0.0, 1.6776150019638233E9, 0.0, 2023-02-28 12:10:01.963
45.0, 27752.238840131624, -4209.146405356694, 15047.999030113106, -3178.7980412004044, 15024.395587968302, 7389.956103558076, -187500.02235174447, -187500.02235174447, -0.212, -0.778, -0.616, 192.0, 0.0, 0.0, 0.0, 0.0, 0.0, 0.0, 0.0, 0.0, 0.0, 1.677615001967857E9, 0.0, 2023-02-28 12:10:01.967
46.0, 27710.664595444752, -4209.9510681570855, 14605.479193386936, -3179.5132970229743, 14789.612864209756, 7280.9466458495435, -187500.02235174447, -187500.02235174447, -0.212, -0.778, -0.616, 192.0, 0.0, 0.0, 0.0, 0.0, 0.0, 0.0, 0.0, 0.0, 0.0, 1.6776150019708176E9, 0.0, 2023-02-28 12:10:01.970
47.0, 27835.387329505367, -4208.855832678775, 15288.414393474388, -3189.236305861033, 15142.770426603607, 7624.023571494052, -187500.02235174447, -187500.02235174447, -0.212, -0.778, -0.616, 192.0, 0.0, 0.0, 0.0, 0.0, 0.0, 0.0, 0.0, 0.0, 0.0, 1.677615001974753E9, 0.0, 2023-02-28 12:10:01.974
48.0, 27903.42603962732, -4205.480719266024, 15785.427783182597, -3187.2470006045105, 15410.611380411552, 7757.262320192137, -187500.02235174447, -187500.02235174447, -0.21, -0.776, -0.608, 192.0, 249.0, 112.0, 231.0, 192.0, 237.0, 0.0, 0.0, 0.0, 0.0, 1.6776150019787595E9, 0.0, 2023-02-28 12:10:01.978
49.0, 27785.989974259137, -4203.245544820493, 15139.462368424221, -3176.227590588044, 15079.179713628258, 7430.435112766638, -187500.02235174447, -187500.02235174447, -0.21, -0.776, -0.608, 192.0, 0.0, 0.0, 0.0, 0.0, 0.0, 0.0, 0.0, 0.0, 0.0, 1.6776150019848328E9, 0.0, 2023-02-28 12:10:01.984
50.0, 27695.44305747069, -4206.0171611329515, 14591.46464961346, -3176.227590588044, 14786.863599641752, 7266.730936375969, -187500.02235174447, -187500.02235174447, -0.21, -0.776, -0.608, 192.0, 0.0, 0.0, 0.0, 0.0, 0.0, 0.0, 0.0, 0.0, 0.0, 1.6776150019888408E9, 0.0, 2023-02-28 12:10:01.988
51.0, 27808.118201269892, -4207.246507077993, 15155.332106987491, -3187.112890137779, 15074.821123459475, 7566.579588243912, -187500.02235174447, -187500.02235174447, -0.21, -0.776, -0.608, 192.0, 0.0, 0.0, 0.0, 0.0, 0.0, 0.0, 0.0, 0.0, 0.0, 1.6776150019918027E9, 0.0, 2023-02-28 12:10:01.991
52.0, 27896.072315701524, -4206.0171611329515, 15798.74942287796, -3189.5492302834073, 15413.159479279457, 7778.92116056933, -187500.02235174447, -187500.02235174447, -0.21, -0.776, -0.608, 192.0, 0.0, 0.0, 0.0, 0.0, 0.0, 0.0, 0.0, 0.0, 0.0, 1.6776150019978447E9, 0.0, 2023-02-28 12:10:01.997
53.0, 27794.573044129975, -4203.893745409697, 15300.909018624905, -3179.178020856145, 15159.154255289348, 7498.742043822056, -187500.02235174447, -187500.02235174447, -0.21, -0.776, -0.608, 192.0, 0.0, 0.0, 0.0, 0.0, 0.0, 0.0, 0.0, 0.0, 0.0, 1.6776150020009415E9, 0.0, 2023-02-28 12:10:02.000
54.0, 27697.05238307147, -4206.821823933342, 14613.950504535498, -3176.1605353546784, 14797.50303000248, 7259.600729894725, -187500.02235174447, -187500.02235174447, -0.21, -0.776, -0.608, 192.0, 0.0, 0.0, 0.0, 0.0, 0.0, 0.0, 0.0, 0.0, 0.0, 1.677615002005784E9, 0.0, 2023-02-28 12:10:02.005
55.0, 27794.12600924087, -4207.268858822448, 15009.174049994237, -3185.5929715148177, 14996.902942288274, 7500.15020372274, -187500.02235174447, -187500.02235174447, -0.21, -0.776, -0.608, 192.0, 0.0, 0.0, 0.0, 0.0, 0.0, 0.0, 0.0, 0.0, 0.0, 1.6776150020088427E9, 0.0, 2023-02-28 12:10:02.008
56.0, 27911.09268797549, -4205.458367521568, 15765.087695728267, -3190.622114017262, 15392.260598213745, 7782.273922237626, -187500.02235174447, -187500.02235174447, -0.21, -0.776, -0.608, 192.0, 0.0, 0.0, 0.0, 0.0, 0.0, 0.0, 0.0, 0.0, 0.0, 1.6776150020118494E9, 0.0, 2023-02-28 12:10:02.011
57.0, 27825.50785845612, -4202.440882020102, 15450.710409964373, -3180.3403115678207, 15234.792558526107, 7568.770059200533, -187500.02235174447, -187500.02235174447, -0.21, -0.776, -0.608, 192.0, 0.0, 0.0, 0.0, 0.0, 0.0, 0.0, 0.0, 0.0, 0.0, 1.6776150020158916E9, 0.0, 2023-02-28 12:10:02.015
58.0, 27687.172912022226, -4202.016198875452, 14668.622871473179, -3173.8359539313265, 14827.789643739421, 7268.921407332588, -187500.02235174447, -187500.02235174447, -0.20800000000000002, -0.778, -0.61, 192.0, 249.0, 128.0, 231.0, 176.0, 236.0, 240.0, 0.0, 0.0, 0.0, 1.6776150020199218E9, 0.0, 2023-02-28 12:10:02.019
59.0, 27747.097938906903, -4204.899573910186, 14875.600025129323, -3182.4413755466194, 14926.271429809503, 7439.889900671233, -187500.02235174447, -187500.02235174447, -0.20800000000000002, -0.778, -0.61, 192.0, 0.0, 0.0, 0.0, 0.0, 0.0, 0.0, 0.0, 0.0, 0.0, 1.677615002023908E9, 0.0, 2023-02-28 12:10:02.023
60.0, 27883.153007406356, -4209.347571056792, 15693.562113471284, -3190.4880035505303, 15349.211138392824, 7766.962977285741, -187500.02235174447, -187500.02235174447, -0.20800000000000002, -0.778, -0.61, 192.0, 0.0, 0.0, 0.0, 0.0, 0.0, 0.0, 0.0, 0.0, 0.0, 1.6776150020268404E9, 0.0, 2023-02-28 12:10:02.026
61.0, 27848.664265711817, -4210.487510024012, 15585.782001707794, -3182.5978377578067, 15300.976073858272, 7631.8466820534095, -187500.02235174447, -187500.02235174447, -0.20800000000000002, -0.778, -0.61, 192.0, 0.0, 0.0, 0.0, 0.0, 0.0, 0.0, 0.0, 0.0, 0.0, 1.6776150020308528E9, 0.0, 2023-02-28 12:10:02.030
62.0, 27715.470220502644, -4212.812091447365, 14763.506026685958, -3175.2217620875554, 14872.783705327953, 7291.787241910368, -187500.02235174447, -187500.02235174447, -0.20800000000000002, -0.778, -0.61, 192.0, 0.0, 0.0, 0.0, 0.0, 0.0, 0.0, 0.0, 0.0, 0.0, 1.6776150020348608E9, 0.0, 2023-02-28 12:10:02.034
63.0, 27741.510002793075, -4214.846100192797, 14762.120218529728, -3182.2849133354325, 14864.714725579588, 7378.802583074878, -187500.02235174447, -187500.02235174447, -0.20800000000000002, -0.778, -0.61, 192.0, 0.0, 0.0, 0.0, 0.0, 0.0, 0.0, 0.0, 0.0, 0.0, 1.6776150020389245E9, 0.0, 2023-02-28 12:10:02.038
64.0, 27881.141350405378, -4215.047265892896, 15585.111449374135, -3191.873811706759, 15292.683576665351, 7730.082598934484, -187500.02235174447, -187500.02235174447, -0.20800000000000002, -0.778, -0.61, 192.0, 0.0, 0.0, 0.0, 0.0, 0.0, 0.0, 0.0, 0.0, 0.0, 1.677615002043831E9, 0.0, 2023-02-28 12:10:02.043
65.0, 27870.90425144485, -4210.442806535102, 15694.769107671871, -3185.5706197703626, 15360.029382709192, 7687.435470513758, -187500.02235174447, -187500.02235174447, -0.20800000000000002, -0.778, -0.61, 192.0, 0.0, 0.0, 0.0, 0.0, 0.0, 0.0, 0.0, 0.0, 0.0, 1.6776150020479405E9, 0.0, 2023-02-28 12:10:02.047
66.0, 27722.82394442844, -4206.419492533147, 14885.27833047847, -3175.3782242987427, 14939.280145082492, 7334.434370331093, -187500.02235174447, -187500.02235174447, -0.20800000000000002, -0.778, -0.61, 192.0, 0.0, 0.0, 0.0, 0.0, 0.0, 0.0, 0.0, 0.0, 0.0, 1.677615002051846E9, 0.0, 2023-02-28 12:10:02.051
67.0, 27722.846296172895, -4206.061864621862, 14676.848313432733, -3180.4744220345524, 14825.576821038345, 7331.886271463189, -187500.02235174447, -187500.02235174447, -0.20800000000000002, -0.778, -0.61, 192.0, 0.0, 0.0, 0.0, 0.0, 0.0, 0.0, 0.0, 0.0, 0.0, 1.6776150020549884E9, 0.0, 2023-02-28 12:10:02.054
68.0, 27867.79735896556, -4208.922887912141, 15450.352782053089, -3191.4714803065635, 15227.081206689027, 7682.763955922599, -187500.02235174447, -187500.02235174447, -0.202, -0.778, -0.608, 192.0, 249.0, 176.0, 231.0, 176.0, 237.0, 0.0, 0.0, 0.0, 0.0, 1.6776150020588608E9, 0.0, 2023-02-28 12:10:02.058
69.0, 27881.923661461315, -4203.40200703168, 15768.619271352205, -3186.4423378041197, 15402.363586707545, 7732.384828613381, -187500.02235174447, -187500.02235174447, -0.202, -0.778, -0.608, 192.0, 0.0, 0.0, 0.0, 0.0, 0.0, 0.0, 0.0, 0.0, 0.0, 1.6776150020629368E9, 0.0, 2023-02-28 12:10:02.062
70.0, 27741.77822372654, -4197.50114649548, 15024.64145715731, -3173.8583056757816, 15017.667712887254, 7389.330254713328, -187500.02235174447, -187500.02235174447, -0.202, -0.778, -0.608, 192.0, 0.0, 0.0, 0.0, 0.0, 0.0, 0.0, 0.0, 0.0, 0.0, 1.6776150020669842E9, 0.0, 2023-02-28 12:10:02.066
71.0, 27700.58395869541, -4199.088120351806, 14620.812490083277, -3175.847610932304, 14800.78873643741, 7299.029207113887, -187500.02235174447, -187500.02235174447, -0.202, -0.778, -0.608, 192.0, 0.0, 0.0, 0.0, 0.0, 0.0, 0.0, 0.0, 0.0, 0.0, 1.6776150020719123E9, 0.0, 2023-02-28 12:10:02.071
72.0, 27829.732338158174, -4203.446710520591, 15295.54459995563, -3187.0234831599573, 15147.508996428132, 7630.41617040827, -187500.02235174447, -187500.02235174447, -0.202, -0.778, -0.608, 192.0, 0.0, 0.0, 0.0, 0.0, 0.0, 0.0, 0.0, 0.0, 0.0, 1.6776150020758636E9, 0.0, 2023-02-28 12:10:02.075
73.0, 27905.258882672657, -4204.7878151879095, 15803.532696191394, -3187.9622564270803, 15415.595819425085, 7769.980462787207, -187500.02235174447, -187500.02235174447, -0.202, -0.778, -0.608, 192.0, 0.0, 0.0, 0.0, 0.0, 0.0, 0.0, 0.0, 0.0, 0.0, 1.6776150020799592E9, 0.0, 2023-02-28 12:10:02.079
74.0, 27789.476846394165, -4202.217364575549, 15174.778124663608, -3176.8310876883374, 15092.188428901247, 7445.097857129319, -187500.02235174447, -187500.02235174447, -0.202, -0.778, -0.608, 192.0, 0.0, 0.0, 0.0, 0.0, 0.0, 0.0, 0.0, 0.0, 0.0, 1.6776150020829155E9, 0.0, 2023-02-28 12:10:02.082
75.0, 27702.95324360767, -4201.5915157308, 14599.243056683907, -3174.305340564888, 14791.579817721822, 7267.9155788320995, -187500.02235174447, -187500.02235174447, -0.202, -0.778, -0.608, 192.0, 0.0, 0.0, 0.0, 0.0, 0.0, 0.0, 0.0, 0.0, 0.0, 1.6776150020869904E9, 0.0, 2023-02-28 12:10:02.086
76.0, 27788.426314404765, -4205.592477988301, 15138.903574812839, -3184.3189220808654, 15068.093248378427, 7560.455210263159, -187500.02235174447, -187500.02235174447, -0.202, -0.778, -0.608, 192.0, 0.0, 0.0, 0.0, 0.0, 0.0, 0.0, 0.0, 0.0, 0.0, 1.6776150020908823E9, 0.0, 2023-02-28 12:10:02.090
77.0, 27874.18995787978, -4206.307733810871, 15801.074004301312, -3186.5540965263963, 15415.394653724989, 7786.006663561662, -187500.02235174447, -187500.02235174447, -0.202, -0.778, -0.608, 192.0, 0.0, 0.0, 0.0, 0.0, 0.0, 0.0, 0.0, 0.0, 0.0, 1.6776150020949087E9, 0.0, 2023-02-28 12:10:02.094
78.0, 27785.855863792403, -4202.396178531191, 15326.546469515142, -3175.3782242987427, 15177.19211306478, 7513.985933540575, -187500.02235174447, -187500.02235174447, -0.194, -0.772, -0.612, 192.0, 249.0, 240.0, 231.0, 224.0, 236.0, 224.0, 0.0, 0.0, 0.0, 1.6776150021000316E9, 0.0, 2023-02-28 12:10:02.100
79.0, 27682.546100919975, -4201.300943052882, 14621.483042416936, -3172.0254626304463, 14806.734300462522, 7264.160485763608, -187500.02235174447, -187500.02235174447, -0.194, -0.772, -0.612, 192.0, 0.0, 0.0, 0.0, 0.0, 0.0, 0.0, 0.0, 0.0, 0.0, 1.677615002104016E9, 0.0, 2023-02-28 12:10:02.104
80.0, 27776.423427632264, -4202.843213420298, 14990.286825929503, -3182.7319482245384, 14991.49382013009, 7492.416500141204, -187500.02235174447, -187500.02235174447, -0.194, -0.772, -0.612, 192.0, 0.0, 0.0, 0.0, 0.0, 0.0, 0.0, 0.0, 0.0, 0.0, 1.6776150021080008E9, 0.0, 2023-02-28 12:10:02.108
81.0, 27903.023708227123, -4203.714931454055, 15759.052724725334, -3188.096366893812, 15395.747470348773, 7779.323491969525, -187500.02235174447, -187500.02235174447, -0.194, -0.772, -0.612, 192.0, 0.0, 0.0, 0.0, 0.0, 0.0, 0.0, 0.0, 0.0, 0.0, 1.677615002110972E9, 0.0, 2023-02-28 12:10:02.110
82.0, 27843.858640653925, -4203.178489587127, 15474.82794223165, -3178.7756894559493, 15248.740047066218, 7578.604826760868, -187500.02235174447, -187500.02235174447, -0.194, -0.772, -0.612, 192.0, 0.0, 0.0, 0.0, 0.0, 0.0, 0.0, 0.0, 0.0, 0.0, 1.6776150021149457E9, 0.0, 2023-02-28 12:10:02.114
83.0, 27731.25055208809, -4203.804338431876, 14685.029051903375, -3173.4783260200415, 14835.143367665216, 7271.424802711583, -187500.02235174447, -187500.02235174447, -0.194, -0.772, -0.612, 192.0, 0.0, 0.0, 0.0, 0.0, 0.0, 0.0, 0.0, 0.0, 0.0, 1.6776150021189098E9, 0.0, 2023-02-28 12:10:02.118
84.0, 27771.05900896299, -4207.447672778091, 14861.540777866934, -3183.0225209024575, 14917.33073202738, 7430.032781366442, -187500.02235174447, -187500.02235174447, -0.194, -0.772, -0.612, 192.0, 0.0, 0.0, 0.0, 0.0, 0.0, 0.0, 0.0, 0.0, 0.0, 1.677615002123006E9, 0.0, 2023-02-28 12:10:02.123
85.0, 27886.438713841286, -4207.470024522546, 15682.185075543533, -3190.2197826170664, 15344.807844735127, 7761.2185789607265, -187500.02235174447, -187500.02235174447, -0.194, -0.772, -0.612, 192.0, 0.0, 0.0, 0.0, 0.0, 0.0, 0.0, 0.0, 0.0, 0.0, 1.6776150021279523E9, 0.0, 2023-02-28 12:10:02.127
86.0, 27834.828535893983, -4206.933582655619, 15605.384481595098, -3181.0108639014798, 15310.69908269633, 7639.938013546231, -187500.02235174447, -187500.02235174447, -0.194, -0.772, -0.612, 192.0, 0.0, 0.0, 0.0, 0.0, 0.0, 0.0, 0.0, 0.0, 0.0, 1.6776150021319363E9, 0.0, 2023-02-28 12:10:02.131
87.0, 27692.827903369416, -4206.218326833049, 14777.900550115175, -3171.779593441438, 14881.567940898889, 7296.771680923901, -187500.02235174447, -187500.02235174447, -0.194, -0.772, -0.612, 192.0, 0.0, 0.0, 0.0, 0.0, 0.0, 0.0, 0.0, 0.0, 0.0, 1.677615002136016E9, 0.0, 2023-02-28 12:10:02.136
88.0, 27701.746249407086, -4211.538042013412, 14746.54105264438, -3180.0497388899016, 14856.712801064588, 7370.51008588196, -187500.02235174447, -187500.02235174447, -0.188, -0.772, -0.61, 192.0, 250.0, 32.0, 231.0, 224.0, 236.0, 240.0, 0.0, 0.0, 0.0, 1.6776150021389956E9, 0.0, 2023-02-28 12:10:02.138
89.0, 27839.924733629792, -4214.242603092504, 15565.486617742376, -3189.750395983505, 15283.11703003848, 7720.650162774345, -187500.02235174447, -187500.02235174447, -0.188, -0.772, -0.61, 192.0, 0.0, 0.0, 0.0, 0.0, 0.0, 0.0, 0.0, 0.0, 0.0, 1.6776150021429589E9, 0.0, 2023-02-28 12:10:02.142
90.0, 27834.448556238243, -4212.856794936275, 15708.761299700893, -3184.0283494029463, 15364.343269389066, 7690.0729763594845, -187500.02235174447, -187500.02235174447, -0.188, -0.772, -0.61, 192.0, 0.0, 0.0, 0.0, 0.0, 0.0, 0.0, 0.0, 0.0, 0.0, 1.6776150021469452E9, 0.0, 2023-02-28 12:10:02.146
91.0, 27696.962976093648, -4211.158062357672, 14905.99839758854, -3174.014767886969, 14951.372438832814, 7336.3566203542505, -187500.02235174447, -187500.02235174447, -0.188, -0.772, -0.61, 192.0, 0.0, 0.0, 0.0, 0.0, 0.0, 0.0, 0.0, 0.0, 0.0, 1.677615002151017E9, 0.0, 2023-02-28 12:10:02.151
92.0, 27690.033935312505, -4214.287306581415, 14667.393525528138, -3180.429718545642, 14819.117166890761, 7320.263364346429, -187500.02235174447, -187500.02235174447, -0.188, -0.772, -0.61, 192.0, 0.0, 0.0, 0.0, 0.0, 0.0, 0.0, 0.0, 0.0, 0.0, 1.6776150021560123E9, 0.0, 2023-02-28 12:10:02.156
93.0, 27848.440748267265, -4216.701294982588, 15430.347970765588, -3192.1420326402226, 15210.563267536554, 7672.61626393989, -187500.02235174447, -187500.02235174447, -0.188, -0.772, -0.61, 192.0, 0.0, 0.0, 0.0, 0.0, 0.0, 0.0, 0.0, 0.0, 0.0, 1.6776150021599848E9, 0.0, 2023-02-28 12:10:02.159
94.0, 27906.376469895422, -4215.561356015367, 15780.152771491144, -3189.7950994724156, 15400.396633195476, 7736.408142615336, -187500.02235174447, -187500.02235174447, -0.188, -0.772, -0.61, 192.0, 0.0, 0.0, 0.0, 0.0, 0.0, 0.0, 0.0, 0.0, 0.0, 1.6776150021629906E9, 0.0, 2023-02-28 12:10:02.162
95.0, 27745.91329645077, -4211.158062357672, 15050.16714932527, -3178.3510063112985, 15024.68616064622, 7391.833650092322, -187500.02235174447, -187500.02235174447, -0.188, -0.772, -0.61, 192.0, 0.0, 0.0, 0.0, 0.0, 0.0, 0.0, 0.0, 0.0, 0.0, 1.6776150021671193E9, 0.0, 2023-02-28 12:10:02.167
96.0, 27681.42851369721, -4207.850004178286, 14615.716292347466, -3178.194544100111, 14794.97728287903, 7291.071986087798, -187500.02235174447, -187500.02235174447, -0.188, -0.772, -0.61, 192.0, 0.0, 0.0, 0.0, 0.0, 0.0, 0.0, 0.0, 0.0, 0.0, 1.6776150021710875E9, 0.0, 2023-02-28 12:10:02.171
97.0, 27803.759611101104, -4209.816957690354, 15275.696250879319, -3188.8339744608375, 15131.393388675857, 7620.424940636747, -187500.02235174447, -187500.02235174447, -0.188, -0.772, -0.61, 192.0, 0.0, 0.0, 0.0, 0.0, 0.0, 0.0, 0.0, 0.0, 0.0, 1.6776150021750667E9, 0.0, 2023-02-28 12:10:02.175
98.0, 27877.90034745936, -4206.978286144529, 15808.584190438294, -3187.269352348966, 15412.667740901441, 7776.216599490238, -187500.02235174447, -187500.02235174447, -0.2, -0.78, -0.608, 192.0, 249.0, 192.0, 231.0, 160.0, 237.0, 0.0, 0.0, 0.0, 0.0, 1.677615002179018E9, 0.0, 2023-02-28 12:10:02.179
99.0, 27770.83549151844, -4202.239716320004, 15198.3368633195, -3175.333520809832, 15102.13495518386, 7459.648842769724, -187500.02235174447, -187500.02235174447, -0.2, -0.78, -0.608, 192.0, 0.0, 0.0, 0.0, 0.0, 0.0, 0.0, 0.0, 0.0, 0.0, 1.6776150021839845E9, 0.0, 2023-02-28 12:10:02.183
100.0, 27675.125321760814, -4202.619695975744, 14600.248885184394, -3174.4841545205304, 14783.846114140288, 7271.156581778119, -187500.02235174447, -187500.02235174447, -0.2, -0.78, -0.608, 192.0, 0.0, 0.0, 0.0, 0.0, 0.0, 0.0, 0.0, 0.0, 0.0, 1.6776150021880805E9, 0.0, 2023-02-28 12:10:02.188
101.0, 27775.68582006524, -4206.173623344138, 15116.864754779906, -3184.5647912698737, 15048.848396402407, 7554.464942749137, -187500.02235174447, -187500.02235174447, -0.2, -0.78, -0.608, 192.0, 0.0, 0.0, 0.0, 0.0, 0.0, 0.0, 0.0, 0.0, 0.0, 1.6776150021910288E9, 0.0, 2023-02-28 12:10:02.191
102.0, 27882.594213794975, -4208.83348093432, 15797.989463566479, -3188.6998639941057, 15413.226534512823, 7787.548933929078, -187500.02235174447, -187500.02235174447, -0.2, -0.78, -0.608, 192.0, 0.0, 0.0, 0.0, 0.0, 0.0, 0.0, 0.0, 0.0, 0.0, 1.6776150021949968E9, 0.0, 2023-02-28 12:10:02.194
103.0, 27805.860675079904, -4208.811129189865, 15349.255841881733, -3179.58035225634, 15184.948168390772, 7524.178329012196, -187500.02235174447, -187500.02235174447, -0.2, -0.78, -0.608, 192.0, 0.0, 0.0, 0.0, 0.0, 0.0, 0.0, 0.0, 0.0, 0.0, 1.6776150021990488E9, 0.0, 2023-02-28 12:10:02.199
104.0, 27702.6403191853, -4210.263992579459, 14628.523841920358, -3176.071128376857, 14804.297960316893, 7265.501590430927, -187500.02235174447, -187500.02235174447, -0.2, -0.78, -0.608, 192.0, 0.0, 0.0, 0.0, 0.0, 0.0, 0.0, 0.0, 0.0, 0.0, 1.6776150022031212E9, 0.0, 2023-02-28 12:10:02.203
105.0, 27774.456474120198, -4211.225117591038, 14964.939947717185, -3185.749433726005, 14971.712526287143, 7484.124002948285, -187500.02235174447, -187500.02235174447, -0.2, -0.78, -0.608, 192.0, 0.0, 0.0, 0.0, 0.0, 0.0, 0.0, 0.0, 0.0, 0.0, 1.677615002207058E9, 0.0, 2023-02-28 12:10:02.207
106.0, 27896.966385479736, -4211.314524568859, 15747.563928075306, -3191.717349495572, 15380.704746330352, 7781.670425137333, -187500.02235174447, -187500.02235174447, -0.2, -0.78, -0.608, 192.0, 0.0, 0.0, 0.0, 0.0, 0.0, 0.0, 0.0, 0.0, 0.0, 1.6776150022110307E9, 0.0, 2023-02-28 12:10:02.211
107.0, 27837.04135859506, -4210.621620490744, 15491.949378484414, -3182.3743203132535, 15253.702134335297, 7586.673806509234, -187500.02235174447, -187500.02235174447, -0.2, -0.78, -0.608, 192.0, 0.0, 0.0, 0.0, 0.0, 0.0, 0.0, 0.0, 0.0, 0.0, 1.677615002216011E9, 0.0, 2023-02-28 12:10:02.216
108.0, 27701.880359873816, -4211.918021669152, 14690.438174061559, -3176.6746254771506, 14832.572917052856, 7272.810610867812, -187500.02235174447, -187500.02235174447, -0.202, -0.784, -0.604, 192.0, 249.0, 176.0, 231.0, 128.0, 237.0, 32.0, 0.0, 0.0, 0.0, 1.6776150022191448E9, 0.0, 2023-02-28 12:10:02.219
109.0, 27725.126174107336, -4213.102664125284, 14831.187108896627, -3184.3189220808654, 14898.689377151655, 7419.125130072252, -187500.02235174447, -187500.02235174447, -0.202, -0.784, -0.604, 192.0, 0.0, 0.0, 0.0, 0.0, 0.0, 0.0, 0.0, 0.0, 0.0, 1.6776150022231328E9, 0.0, 2023-02-28 12:10:02.223
110.0, 27860.26482108412, -4212.722684469543, 15658.201653742988, -3191.1585558841894, 15330.189803861358, 7756.01062250264, -187500.02235174447, -187500.02235174447, -0.202, -0.784, -0.604, 192.0, 0.0, 0.0, 0.0, 0.0, 0.0, 0.0, 0.0, 0.0, 0.0, 1.6776150022270412E9, 0.0, 2023-02-28 12:10:02.227
111.0, 27837.868373139903, -4210.755730957476, 15615.398063111075, -3182.530782524441, 15316.51053625471, 7647.492903172124, -187500.02235174447, -187500.02235174447, -0.202, -0.784, -0.604, 192.0, 0.0, 0.0, 0.0, 0.0, 0.0, 0.0, 0.0, 0.0, 0.0, 1.6776150022310233E9, 0.0, 2023-02-28 12:10:02.231
112.0, 27706.216598298146, -4207.559431500367, 14790.171657821138, -3173.031291130935, 14886.6641386347, 7300.593829225759, -187500.02235174447, -187500.02235174447, -0.202, -0.784, -0.604, 192.0, 0.0, 0.0, 0.0, 0.0, 0.0, 0.0, 0.0, 0.0, 0.0, 1.677615002235081E9, 0.0, 2023-02-28 12:10:02.235
113.0, 27714.598502468885, -4208.408797789669, 14723.697569811055, -3179.4685935340635, 14845.715742792576, 7360.630614832714, -187500.02235174447, -187500.02235174447, -0.202, -0.784, -0.604, 192.0, 0.0, 0.0, 0.0, 0.0, 0.0, 0.0, 0.0, 0.0, 0.0, 1.6776150022390823E9, 0.0, 2023-02-28 12:10:02.239
114.0, 27852.46406226922, -4207.246507077993, 15537.055198795224, -3188.5210500384633, 15267.694326364319, 7714.078749904484, -187500.02235174447, -187500.02235174447, -0.202, -0.784, -0.604, 192.0, 0.0, 0.0, 0.0, 0.0, 0.0, 0.0, 0.0, 0.0, 0.0, 1.6776150022441216E9, 0.0, 2023-02-28 12:10:02.244
115.0, 27862.857623440937, -4204.899573910186, 15710.638846235139, -3184.0283494029463, 15363.829179266595, 7696.577333995979, -187500.02235174447, -187500.02235174447, -0.202, -0.784, -0.604, 192.0, 0.0, 0.0, 0.0, 0.0, 0.0, 0.0, 0.0, 0.0, 0.0, 1.677615002247152E9, 0.0, 2023-02-28 12:10:02.247
116.0, 27724.187400840212, -4203.446710520591, 14916.213144804615, -3174.5288580094407, 14950.992459177072, 7341.11754192323, -187500.02235174447, -187500.02235174447, -0.202, -0.784, -0.604, 192.0, 0.0, 0.0, 0.0, 0.0, 0.0, 0.0, 0.0, 0.0, 0.0, 1.6776150022511115E9, 0.0, 2023-02-28 12:10:02.251
117.0, 27694.95131909267, -4206.464196022057, 14646.22642352896, -3179.222724345055, 14802.465117271557, 7311.121500864208, -187500.02235174447, -187500.02235174447, -0.202, -0.784, -0.604, 192.0, 0.0, 0.0, 0.0, 0.0, 0.0, 0.0, 0.0, 0.0, 0.0, 1.6776150022551708E9, 0.0, 2023-02-28 12:10:02.255
118.0, 27828.905323613326, -4208.811129189865, 15398.004996538759, -3189.2810093499434, 15189.373813792923, 7661.127467289862, -187500.02235174447, -187500.02235174447, -0.202, -0.784, -0.604, 192.0, 0.0, 0.0, 0.0, 0.0, 0.0, 0.0, 0.0, 0.0, 0.0, 1.6776150022591712E9, 0.0, 2023-02-28 12:10:02.259
119.0, 27883.600042295464, -4207.671190222644, 15779.459867413028, -3186.062358148379, 15395.389842437487, 7737.168101926816, -187500.02235174447, -187500.02235174447, -0.202, -0.778, -0.598, 192.0, 249.0, 176.0, 231.0, 176.0, 237.0, 80.0, 0.0, 0.0, 0.0, 1.677615002263118E9, 0.0, 2023-02-28 12:10:02.263
120.0, 27744.013398172072, -4208.922887912141, 15063.645251231821, -3175.4452795321085, 15026.675465902743, 7392.615961148258, -187500.02235174447, -187500.02235174447, -0.202, -0.778, -0.598, 192.0, 0.0, 0.0, 0.0, 0.0, 0.0, 0.0, 0.0, 0.0, 0.0, 1.6776150022671497E9, 0.0, 2023-02-28 12:10:02.267
121.0, 27683.551929420464, -4208.744073956499, 14600.561809606768, -3174.8864859207256, 14781.521532716935, 7277.9515120925325, -187500.02235174447, -187500.02235174447, -0.202, -0.778, -0.598, 192.0, 0.0, 0.0, 0.0, 0.0, 0.0, 0.0, 0.0, 0.0, 0.0, 1.6776150022722037E9, 0.0, 2023-02-28 12:10:02.272
122.0, 27806.55357915802, -4212.879146680731, 15240.78282604013, -3188.1634221271784, 15112.32735065548, 7598.319065370449, -187500.02235174447, -187500.02235174447, -0.202, -0.778, -0.598, 192.0, 0.0, 0.0, 0.0, 0.0, 0.0, 0.0, 0.0, 0.0, 0.0, 1.6776150022751863E9, 0.0, 2023-02-28 12:10:02.275
123.0, 27886.081085930004, -4214.108492625773, 15805.723167148015, -3190.1750791281556, 15409.42673795542, 7768.1476197418715, -187500.02235174447, -187500.02235174447, -0.202, -0.778, -0.598, 192.0, 0.0, 0.0, 0.0, 0.0, 0.0, 0.0, 0.0, 0.0, 0.0, 1.6776150022781713E9, 0.0, 2023-02-28 12:10:02.278
124.0, 27765.06874144897, -4212.11918736925, 15216.642942028397, -3178.7980412004044, 15109.13105119837, 7458.866531713788, -187500.02235174447, -187500.02235174447, -0.202, -0.778, -0.598, 192.0, 0.0, 0.0, 0.0, 0.0, 0.0, 0.0, 0.0, 0.0, 0.0, 1.6776150022832172E9, 0.0, 2023-02-28 12:10:02.283
125.0, 27668.643315868776, -4214.30965832587, 14597.276103171838, -3176.0487766324018, 14782.616768195245, 7259.4666194279935, -187500.02235174447, -187500.02235174447, -0.202, -0.778, -0.598, 192.0, 0.0, 0.0, 0.0, 0.0, 0.0, 0.0, 0.0, 0.0, 0.0, 1.6776150022871375E9, 0.0, 2023-02-28 12:10:02.287
126.0, 27761.939497225227, -4221.9316031851295, 15090.735565511653, -3187.716387238072, 15033.02336132805, 7534.460131461637, -187500.02235174447, -187500.02235174447, -0.202, -0.778, -0.598, 192.0, 0.0, 0.0, 0.0, 0.0, 0.0, 0.0, 0.0, 0.0, 0.0, 1.6776150022911556E9, 0.0, 2023-02-28 12:10:02.291
127.0, 27859.169585605814, -4226.178434631638, 15796.961283321534, -3193.4384338186305, 15401.38010995151, 7779.010567547151, -187500.02235174447, -187500.02235174447, -0.202, -0.778, -0.598, 192.0, 0.0, 0.0, 0.0, 0.0, 0.0, 0.0, 0.0, 0.0, 0.0, 1.677615002295153E9, 0.0, 2023-02-28 12:10:02.295
128.0, 27757.715017523173, -4226.871338709752, 15375.94382476137, -3183.715424980572, 15186.445735269277, 7523.6642388897235, -187500.02235174447, -187500.02235174447, -0.202, -0.778, -0.598, 192.0, 0.0, 0.0, 0.0, 0.0, 0.0, 0.0, 0.0, 0.0, 0.0, 1.6776150023001125E9, 0.0, 2023-02-28 12:10:02.300
129.0, 27631.13708867277, -4229.575899788845, 14635.028199556853, -3179.0662621338683, 14795.312559045859, 7254.213959480997, -187500.02235174447, -187500.02235174447, -0.198, -0.78, -0.608, 192.0, 249.0, 208.0, 231.0, 160.0, 237.0, 0.0, 0.0, 0.0, 0.0, 1.677615002303169E9, 0.0, 2023-02-28 12:10:02.303
130.0, 27694.169008036737, -4235.387353347225, 14946.902089941752, -3189.1916023721224, 14946.566813774922, 7466.5555318064135, -187500.02235174447, -187500.02235174447, -0.198, -0.78, -0.608, 192.0, 0.0, 0.0, 0.0, 0.0, 0.0, 0.0, 0.0, 0.0, 0.0, 1.677615002307168E9, 0.0, 2023-02-28 12:10:02.307
131.0, 27815.941311829247, -4237.734286515032, 15742.534785572861, -3195.807718730893, 15358.263594897224, 7774.026128533617, -187500.02235174447, -187500.02235174447, -0.198, -0.78, -0.608, 192.0, 0.0, 0.0, 0.0, 0.0, 0.0, 0.0, 0.0, 0.0, 0.0, 1.677615002311157E9, 0.0, 2023-02-28 12:10:02.311
132.0, 27748.282581363033, -4238.226024893049, 15518.615009619596, -3187.358759326787, 15247.15307320989, 7592.127632156329, -187500.02235174447, -187500.02235174447, -0.198, -0.78, -0.608, 192.0, 0.0, 0.0, 0.0, 0.0, 0.0, 0.0, 0.0, 0.0, 0.0, 1.6776150023151238E9, 0.0, 2023-02-28 12:10:02.315
133.0, 27606.99720466104, -4241.26586213897, 14708.185459159073, -3181.189677857122, 14822.69344600361, 7272.117706789698, -187500.02235174447, -187500.02235174447, -0.198, -0.78, -0.608, 192.0, 0.0, 0.0, 0.0, 0.0, 0.0, 0.0, 0.0, 0.0, 0.0, 1.6776150023192105E9, 0.0, 2023-02-28 12:10:02.319
134.0, 27652.795929049964, -4244.730382529543, 14822.738149492521, -3189.5492302834073, 14875.622376873778, 7405.334103743327, -187500.02235174447, -187500.02235174447, -0.198, -0.78, -0.608, 192.0, 0.0, 0.0, 0.0, 0.0, 0.0, 0.0, 0.0, 0.0, 0.0, 1.6776150023231575E9, 0.0, 2023-02-28 12:10:02.323
135.0, 27771.46134036319, -4248.664289553677, 15652.85958681817, -3197.908782709692, 15308.732129184262, 7748.254567176648, -187500.02235174447, -187500.02235174447, -0.198, -0.78, -0.608, 192.0, 0.0, 0.0, 0.0, 0.0, 0.0, 0.0, 0.0, 0.0, 0.0, 1.6776150023282557E9, 0.0, 2023-02-28 12:10:02.328
136.0, 27721.3934327833, -4249.156027931694, 15642.801301813282, -3190.353893083798, 15309.290922795646, 7655.628938153856, -187500.02235174447, -187500.02235174447, -0.198, -0.78, -0.608, 192.0, 0.0, 0.0, 0.0, 0.0, 0.0, 0.0, 0.0, 0.0, 0.0, 1.6776150023311987E9, 0.0, 2023-02-28 12:10:02.331
137.0, 27581.292698537436, -4246.004431963495, 14813.5962860103, -3181.100270879301, 14880.98679554305, 7303.901887405144, -187500.02235174447, -187500.02235174447, -0.198, -0.78, -0.608, 192.0, 0.0, 0.0, 0.0, 0.0, 0.0, 0.0, 0.0, 0.0, 0.0, 1.6776150023341818E9, 0.0, 2023-02-28 12:10:02.334
138.0, 27575.056561834404, -4249.446600609613, 14715.539183084868, -3187.001131415502, 14825.152137893694, 7350.460571105549, -187500.02235174447, -187500.02235174447, -0.198, -0.78, -0.608, 192.0, 0.0, 0.0, 0.0, 0.0, 0.0, 0.0, 0.0, 0.0, 0.0, 1.677615002339161E9, 0.0, 2023-02-28 12:10:02.339
139.0, 27695.510112704054, -4256.710917557588, 15529.053274280224, -3198.467576321075, 15242.01217198517, 7705.607438755923, -187500.02235174447, -187500.02235174447, -0.2, -0.782, -0.614, 192.0, 249.0, 192.0, 231.0, 144.0, 236.0, 208.0, 0.0, 0.0, 0.0, 1.6776150023431847E9, 0.0, 2023-02-28 12:10:02.343
140.0, 27705.367232008844, -4256.88973151323, 15738.086788426255, -3193.974875685558, 15357.615394308019, 7703.2828573325705, -187500.02235174447, -187500.02235174447, -0.2, -0.782, -0.614, 192.0, 0.0, 0.0, 0.0, 0.0, 0.0, 0.0, 0.0, 0.0, 0.0, 1.6776150023471763E9, 0.0, 2023-02-28 12:10:02.347
141.0, 27562.897212850716, -4256.487400113035, 14949.763113232031, -3184.3412738253205, 14948.243194609071, 7346.191387914585, -187500.02235174447, -187500.02235174447, -0.2, -0.782, -0.614, 192.0, 0.0, 0.0, 0.0, 0.0, 0.0, 0.0, 0.0, 0.0, 0.0, 1.677615002351231E9, 0.0, 2023-02-28 12:10:02.351
142.0, 27527.603808355787, -4261.427135637658, 14649.176853797062, -3188.9233814386585, 14783.577893206822, 7304.103053105242, -187500.02235174447, -187500.02235174447, -0.2, -0.782, -0.614, 192.0, 0.0, 0.0, 0.0, 0.0, 0.0, 0.0, 0.0, 0.0, 0.0, 1.6776150023542552E9, 0.0, 2023-02-28 12:10:02.354
143.0, 27660.797853564964, -4265.137525217238, 15392.61822612503, -3200.68039902215, 15163.602252435954, 7654.936034075741, -187500.02235174447, -187500.02235174447, -0.2, -0.782, -0.614, 192.0, 0.0, 0.0, 0.0, 0.0, 0.0, 0.0, 0.0, 0.0, 0.0, 1.677615002358194E9, 0.0, 2023-02-28 12:10:02.358
144.0, 27712.162162323257, -4263.46114438309, 15806.885457859691, -3199.160480399189, 15386.180923721902, 7749.7744857996095, -187500.02235174447, -187500.02235174447, -0.2, -0.782, -0.614, 192.0, 0.0, 0.0, 0.0, 0.0, 0.0, 0.0, 0.0, 0.0, 0.0, 1.6776150023621974E9, 0.0, 2023-02-28 12:10:02.362
145.0, 27575.03421008995, -4261.538894359934, 15105.688882552253, -3187.8504977048037, 15025.35671297988, 7411.4361299796265, -187500.02235174447, -187500.02235174447, -0.2, -0.782, -0.614, 192.0, 0.0, 0.0, 0.0, 0.0, 0.0, 0.0, 0.0, 0.0, 0.0, 1.6776150023672655E9, 0.0, 2023-02-28 12:10:02.367
146.0, 27498.54654056389, -4265.897484528718, 14617.07974875924, -3189.370416327765, 14763.617785408234, 7279.069099315298, -187500.02235174447, -187500.02235174447, -0.2, -0.782, -0.614, 192.0, 0.0, 0.0, 0.0, 0.0, 0.0, 0.0, 0.0, 0.0, 0.0, 1.6776150023712652E9, 0.0, 2023-02-28 12:10:02.371
147.0, 27614.70855649812, -4270.524295630968, 15240.447549873299, -3200.9933234445243, 15084.521780553077, 7594.340454857404, -187500.02235174447, -187500.02235174447, -0.2, -0.782, -0.614, 192.0, 0.0, 0.0, 0.0, 0.0, 0.0, 0.0, 0.0, 0.0, 0.0, 1.6776150023752415E9, 0.0, 2023-02-28 12:10:02.375
148.0, 27708.63058669932, -4266.1880572066375, 15827.784338925403, -3200.5686402998736, 15399.368452950534, 7775.210770989749, -187500.02235174447, -187500.02235174447, -0.2, -0.782, -0.614, 192.0, 0.0, 0.0, 0.0, 0.0, 0.0, 0.0, 0.0, 0.0, 0.0, 1.6776150023792536E9, 0.0, 2023-02-28 12:10:02.379
149.0, 27597.676527223175, -4262.9023507717075, 15259.804160571595, -3188.074015149357, 15112.081481466472, 7472.0093574535085, -187500.02235174447, -187500.02235174447, -0.202, -0.782, -0.614, 192.0, 249.0, 176.0, 231.0, 144.0, 236.0, 208.0, 0.0, 0.0, 0.0, 1.677615002383293E9, 0.0, 2023-02-28 12:10:02.383
150.0, 27495.506703317966, -4266.2998159289145, 14619.247867971406, -3186.375282570754, 14772.334965745804, 7260.271282228385, -187500.02235174447, -187500.02235174447, -0.202, -0.782, -0.614, 192.0, 0.0, 0.0, 0.0, 0.0, 0.0, 0.0, 0.0, 0.0, 0.0, 1.6776150023872728E9, 0.0, 2023-02-28 12:10:02.387
151.0, 27578.83400664735, -4269.518467130479, 15085.4605538202, -3196.210050131089, 15007.475317415634, 7529.207471514639, -187500.02235174447, -187500.02235174447, -0.202, -0.782, -0.614, 192.0, 0.0, 0.0, 0.0, 0.0, 0.0, 0.0, 0.0, 0.0, 0.0, 1.6776150023902342E9, 0.0, 2023-02-28 12:10:02.390
152.0, 27687.038801555493, -4270.457240397602, 15806.349015992764, -3200.725102511061, 15382.42583065341, 7788.420651962835, -187500.02235174447, -187500.02235174447, -0.202, -0.782, -0.614, 192.0, 0.0, 0.0, 0.0, 0.0, 0.0, 0.0, 0.0, 0.0, 0.0, 1.67761500239421E9, 0.0, 2023-02-28 12:10:02.394
153.0, 27611.959291930118, -4265.785725806442, 15411.550153678674, -3189.593933772318, 15181.036613111093, 7547.044163589974, -187500.02235174447, -187500.02235174447, -0.202, -0.782, -0.614, 192.0, 0.0, 0.0, 0.0, 0.0, 0.0, 0.0, 0.0, 0.0, 0.0, 1.6776150023993921E9, 0.0, 2023-02-28 12:10:02.399
154.0, 27478.54172927639, -4268.937321774641, 14655.90472887811, -3184.9000674367035, 14785.030756596418, 7268.809648610312, -187500.02235174447, -187500.02235174447, -0.202, -0.782, -0.614, 192.0, 0.0, 0.0, 0.0, 0.0, 0.0, 0.0, 0.0, 0.0, 0.0, 1.6776150024033592E9, 0.0, 2023-02-28 12:10:02.403
155.0, 27546.267514975967, -4272.826525309864, 14941.090636383373, -3194.332503596843, 14927.746644943554, 7468.9024649742205, -187500.02235174447, -187500.02235174447, -0.202, -0.782, -0.614, 192.0, 0.0, 0.0, 0.0, 0.0, 0.0, 0.0, 0.0, 0.0, 0.0, 1.6776150024073465E9, 0.0, 2023-02-28 12:10:02.407
156.0, 27671.169062992223, -4276.447507911624, 15746.781617019371, -3202.1556141562005, 15346.975963947292, 7778.6529396358665, -187500.02235174447, -187500.02235174447, -0.202, -0.782, -0.614, 192.0, 0.0, 0.0, 0.0, 0.0, 0.0, 0.0, 0.0, 0.0, 0.0, 1.6776150024112709E9, 0.0, 2023-02-28 12:10:02.411
157.0, 27609.70176574013, -4273.586484621344, 15553.193158291955, -3193.0808059073456, 15253.120988979459, 7612.512423099569, -187500.02235174447, -187500.02235174447, -0.202, -0.782, -0.614, 192.0, 0.0, 0.0, 0.0, 0.0, 0.0, 0.0, 0.0, 0.0, 0.0, 1.677615002414262E9, 0.0, 2023-02-28 12:10:02.414
158.0, 27470.71861871703, -4273.0500427544175, 14735.298125183359, -3185.72708198155, 14825.420358827158, 7288.143907564153, -187500.02235174447, -187500.02235174447, -0.202, -0.782, -0.614, 192.0, 0.0, 0.0, 0.0, 0.0, 0.0, 0.0, 0.0, 0.0, 0.0, 1.6776150024183092E9, 0.0, 2023-02-28 12:10:02.418
159.0, 27511.82347677034, -4273.072394498872, 14817.440786056613, -3193.1255093962563, 14861.719591822577, 7412.106682313286, -187500.02235174447, -187500.02235174447, -0.20400000000000001, -0.79, -0.614, 192.0, 249.0, 160.0, 231.0, 80.0, 236.0, 208.0, 0.0, 0.0, 0.0, 1.6776150024222827E9, 0.0, 2023-02-28 12:10:02.422
160.0, 27653.980571506094, -4272.915932287685, 15649.417418172054, -3201.2168408890775, 15293.175315043369, 7759.653956848855, -187500.02235174447, -187500.02235174447, -0.20400000000000001, -0.79, -0.614, 192.0, 0.0, 0.0, 0.0, 0.0, 0.0, 0.0, 0.0, 0.0, 0.0, 1.6776150024272485E9, 0.0, 2023-02-28 12:10:02.427
161.0, 27635.42862360819, -4270.144315975227, 15674.183151028534, -3194.0866344078345, 15311.704911196819, 7678.740641920644, -187500.02235174447, -187500.02235174447, -0.20400000000000001, -0.79, -0.614, 192.0, 0.0, 0.0, 0.0, 0.0, 0.0, 0.0, 0.0, 0.0, 0.0, 1.677615002431282E9, 0.0, 2023-02-28 12:10:02.431
162.0, 27491.4386858271, -4268.333824674347, 14847.88386200474, -3184.877715692248, 14883.400783944224, 7324.487844048482, -187500.02235174447, -187500.02235174447, -0.20400000000000001, -0.79, -0.614, 192.0, 0.0, 0.0, 0.0, 0.0, 0.0, 0.0, 0.0, 0.0, 0.0, 1.6776150024352632E9, 0.0, 2023-02-28 12:10:02.435
163.0, 27489.06940091484, -4270.725461331065, 14719.048406964352, -3191.650294262206, 14807.874239429742, 7359.177751443119, -187500.02235174447, -187500.02235174447, -0.20400000000000001, -0.79, -0.614, 192.0, 0.0, 0.0, 0.0, 0.0, 0.0, 0.0, 0.0, 0.0, 0.0, 1.6776150024383554E9, 0.0, 2023-02-28 12:10:02.438
164.0, 27628.23136189358, -4275.888714300241, 15524.426463177975, -3203.4073118456977, 15221.381511852922, 7716.090406905461, -187500.02235174447, -187500.02235174447, -0.20400000000000001, -0.79, -0.614, 192.0, 0.0, 0.0, 0.0, 0.0, 0.0, 0.0, 0.0, 0.0, 0.0, 1.6776150024422948E9, 0.0, 2023-02-28 12:10:02.442
165.0, 27648.549097603453, -4274.9946445220285, 15766.384096906675, -3198.8922594657256, 15352.385086105478, 7730.686096034778, -187500.02235174447, -187500.02235174447, -0.20400000000000001, -0.79, -0.614, 192.0, 0.0, 0.0, 0.0, 0.0, 0.0, 0.0, 0.0, 0.0, 0.0, 1.6776150024463305E9, 0.0, 2023-02-28 12:10:02.446
166.0, 27503.732145277518, -4273.139449732238, 14986.419974138735, -3187.5599250268847, 14949.316078342925, 7373.12523998323, -187500.02235174447, -187500.02235174447, -0.20400000000000001, -0.79, -0.614, 192.0, 0.0, 0.0, 0.0, 0.0, 0.0, 0.0, 0.0, 0.0, 0.0, 1.677615002450277E9, 0.0, 2023-02-28 12:10:02.450
167.0, 27466.851766926262, -4275.553438133412, 14653.937775366043, -3191.4044250731977, 14772.089096556796, 7316.038884644376, -187500.02235174447, -187500.02235174447, -0.20400000000000001, -0.79, -0.614, 192.0, 0.0, 0.0, 0.0, 0.0, 0.0, 0.0, 0.0, 0.0, 0.0, 1.6776150024552748E9, 0.0, 2023-02-28 12:10:02.455
168.0, 27593.83202717686, -4279.621455624278, 15380.637691096985, -3202.4685385785747, 15144.75973186013, 7659.920473089275, -187500.02235174447, -187500.02235174447, -0.20400000000000001, -0.79, -0.614, 192.0, 0.0, 0.0, 0.0, 0.0, 0.0, 0.0, 0.0, 0.0, 0.0, 1.6776150024593124E9, 0.0, 2023-02-28 12:10:02.459
169.0, 27650.896030771262, -4279.062662012895, 15822.598734211771, -3201.306247866899, 15378.514275373731, 7771.030994776606, -187500.02235174447, -187500.02235174447, -0.20400000000000001, -0.786, -0.614, 192.0, 249.0, 160.0, 231.0, 112.0, 236.0, 208.0, 0.0, 0.0, 0.0, 1.6776150024633048E9, 0.0, 2023-02-28 12:10:02.463
170.0, 27531.560067124377, -4274.659368355199, 15137.271897467603, -3190.0186169169688, 15026.943686836206, 7438.034705881442, -187500.02235174447, -187500.02235174447, -0.20400000000000001, -0.786, -0.614, 192.0, 0.0, 0.0, 0.0, 0.0, 0.0, 0.0, 0.0, 0.0, 0.0, 1.677615002466348E9, 0.0, 2023-02-28 12:10:02.466
171.0, 27459.274525555913, -4278.839144568342, 14622.51122266188, -3192.253791362499, 14750.87729106871, 7293.105994833231, -187500.02235174447, -187500.02235174447, -0.20400000000000001, -0.786, -0.614, 192.0, 0.0, 0.0, 0.0, 0.0, 0.0, 0.0, 0.0, 0.0, 0.0, 1.677615002470454E9, 0.0, 2023-02-28 12:10:02.470
172.0, 27570.83208213235, -4281.364891691791, 15225.4942328327, -3203.2508496345104, 15057.476169762156, 7603.348207872893, -187500.02235174447, -187500.02235174447, -0.20400000000000001, -0.786, -0.614, 192.0, 0.0, 0.0, 0.0, 0.0, 0.0, 0.0, 0.0, 0.0, 0.0, 1.6776150024744635E9, 0.0, 2023-02-28 12:10:02.474
173.0, 27648.549097603453, -4282.616589381289, 15836.74738845198, -3204.4354920906417, 15380.123600974513, 7801.004684091174, -187500.02235174447, -187500.02235174447, -0.20400000000000001, -0.786, -0.614, 192.0, 0.0, 0.0, 0.0, 0.0, 0.0, 0.0, 0.0, 0.0, 0.0, 1.6776150024784951E9, 0.0, 2023-02-28 12:10:02.478
174.0, 27557.041055803427, -4274.614664866289, 15294.11408831049, -3191.3150180953767, 15105.42066161879, 7507.414520670715, -187500.02235174447, -187500.02235174447, -0.20400000000000001, -0.786, -0.614, 192.0, 0.0, 0.0, 0.0, 0.0, 0.0, 0.0, 0.0, 0.0, 0.0, 1.6776150024834056E9, 0.0, 2023-02-28 12:10:02.483
175.0, 27461.800272679364, -4273.921760788174, 14629.172042509563, -3188.722215738561, 14753.939480059085, 7285.193477296052, -187500.02235174447, -187500.02235174447, -0.20400000000000001, -0.786, -0.614, 192.0, 0.0, 0.0, 0.0, 0.0, 0.0, 0.0, 0.0, 0.0, 0.0, 1.6776150024874072E9, 0.0, 2023-02-28 12:10:02.487
176.0, 27548.5026894215, -4277.6097986233, 15070.373126312868, -3200.30041936641, 14975.311157144448, 7545.479541478103, -187500.02235174447, -187500.02235174447, -0.20400000000000001, -0.786, -0.614, 192.0, 0.0, 0.0, 0.0, 0.0, 0.0, 0.0, 0.0, 0.0, 0.0, 1.677615002491443E9, 0.0, 2023-02-28 12:10:02.491
177.0, 27657.087463985383, -4281.722519603076, 15809.65707417215, -3206.223631647066, 15359.671754797908, 7810.101844084484, -187500.02235174447, -187500.02235174447, -0.20400000000000001, -0.786, -0.614, 192.0, 0.0, 0.0, 0.0, 0.0, 0.0, 0.0, 0.0, 0.0, 0.0, 1.677615002494484E9, 0.0, 2023-02-28 12:10:02.494
178.0, 27576.665887435185, -4280.381414935758, 15444.720142450351, -3195.3159803528765, 15177.236816553692, 7575.877913937321, -187500.02235174447, -187500.02235174447, -0.20400000000000001, -0.786, -0.614, 192.0, 0.0, 0.0, 0.0, 0.0, 0.0, 0.0, 0.0, 0.0, 0.0, 1.6776150024984345E9, 0.0, 2023-02-28 12:10:02.498
179.0, 27463.700170958065, -4278.012130023495, 14674.993118642942, -3189.035140160935, 14776.492390214491, 7288.501535475438, -187500.02235174447, -187500.02235174447, -0.198, -0.778, -0.608, 192.0, 249.0, 208.0, 231.0, 176.0, 237.0, 0.0, 0.0, 0.0, 0.0, 1.6776150025024428E9, 0.0, 2023-02-28 12:10:02.502
180.0, 27526.150944966193, -4280.18024923566, 14928.752473444043, -3197.9981896875133, 14901.840973119854, 7475.496229588536, -187500.02235174447, -187500.02235174447, -0.198, -0.778, -0.608, 192.0, 0.0, 0.0, 0.0, 0.0, 0.0, 0.0, 0.0, 0.0, 0.0, 1.6776150025085175E9, 0.0, 2023-02-28 12:10:02.508
181.0, 27644.145803945758, -4286.774013849976, 15742.154805917122, -3207.7659020144824, 15323.46192878031, 7791.460489208757, -187500.02235174447, -187500.02235174447, -0.198, -0.778, -0.608, 192.0, 0.0, 0.0, 0.0, 0.0, 0.0, 0.0, 0.0, 0.0, 0.0, 1.6776150025114357E9, 0.0, 2023-02-28 12:10:02.511
182.0, 27598.257672579013, -4284.449432426623, 15583.546827262262, -3199.1828321436446, 15248.270660432658, 7634.037153010029, -187500.02235174447, -187500.02235174447, -0.198, -0.778, -0.608, 192.0, 0.0, 0.0, 0.0, 0.0, 0.0, 0.0, 0.0, 0.0, 0.0, 1.6776150025154257E9, 0.0, 2023-02-28 12:10:02.515
183.0, 27474.07138038533, -4277.095708500828, 14757.247538238471, -3190.0856721503346, 14817.485489545525, 7303.656018216136, -187500.02235174447, -187500.02235174447, -0.198, -0.778, -0.608, 192.0, 0.0, 0.0, 0.0, 0.0, 0.0, 0.0, 0.0, 0.0, 0.0, 1.6776150025194986E9, 0.0, 2023-02-28 12:10:02.519
184.0, 27495.953738207074, -4278.615627123789, 14806.220210340049, -3197.551154798407, 14833.958725209086, 7415.168871303663, -187500.02235174447, -187500.02235174447, -0.198, -0.778, -0.608, 192.0, 0.0, 0.0, 0.0, 0.0, 0.0, 0.0, 0.0, 0.0, 0.0, 1.6776150025224118E9, 0.0, 2023-02-28 12:10:02.522
185.0, 27644.011693479028, -4280.22495272457, 15636.296944176787, -3206.6036113028067, 15263.916881551371, 7763.185532472794, -187500.02235174447, -187500.02235174447, -0.198, -0.778, -0.608, 192.0, 0.0, 0.0, 0.0, 0.0, 0.0, 0.0, 0.0, 0.0, 0.0, 1.677615002526402E9, 0.0, 2023-02-28 12:10:02.526
186.0, 27642.469423111612, -4275.844010811331, 15692.556284970795, -3199.1828321436446, 15303.4124140039, 7696.219706084694, -187500.02235174447, -187500.02235174447, -0.198, -0.778, -0.608, 192.0, 0.0, 0.0, 0.0, 0.0, 0.0, 0.0, 0.0, 0.0, 0.0, 1.677615002530386E9, 0.0, 2023-02-28 12:10:02.530
187.0, 27492.019831182937, -4276.246342211526, 14868.179245970161, -3189.4151198166755, 14876.002356529518, 7341.653983790158, -187500.02235174447, -187500.02235174447, -0.198, -0.778, -0.608, 192.0, 0.0, 0.0, 0.0, 0.0, 0.0, 0.0, 0.0, 0.0, 0.0, 1.6776150025344412E9, 0.0, 2023-02-28 12:10:02.534
188.0, 27492.891549216696, -4277.542743389934, 14708.856011492731, -3195.226573375055, 14785.991881607997, 7362.508161366959, -187500.02235174447, -187500.02235174447, -0.198, -0.778, -0.608, 192.0, 0.0, 0.0, 0.0, 0.0, 0.0, 0.0, 0.0, 0.0, 0.0, 1.677615002539441E9, 0.0, 2023-02-28 12:10:02.539
189.0, 27634.55690557443, -4279.152068990716, 15506.746233313828, -3206.3800938582535, 15195.855819684963, 7719.264354618115, -187500.02235174447, -187500.02235174447, -0.196, -0.774, -0.608, 192.0, 249.0, 224.0, 231.0, 208.0, 237.0, 0.0, 0.0, 0.0, 0.0, 1.6776150025434344E9, 0.0, 2023-02-28 12:10:02.543
190.0, 27666.00581002305, -4278.168592234682, 15784.1760854931, -3202.356779856298, 15346.283059869178, 7747.740477054176, -187500.02235174447, -187500.02235174447, -0.196, -0.774, -0.608, 192.0, 0.0, 0.0, 0.0, 0.0, 0.0, 0.0, 0.0, 0.0, 0.0, 1.677615002546446E9, 0.0, 2023-02-28 12:10:02.546
191.0, 27512.181104681626, -4281.297836458425, 15019.142928021305, -3191.426776817653, 14948.042028908972, 7391.051339036387, -187500.02235174447, -187500.02235174447, -0.196, -0.774, -0.608, 192.0, 0.0, 0.0, 0.0, 0.0, 0.0, 0.0, 0.0, 0.0, 0.0, 1.6776150025504112E9, 0.0, 2023-02-28 12:10:02.550
192.0, 27468.77401694942, -4281.901333558719, 14657.111723078695, -3194.4442623191194, 14752.44191318058, 7317.648210245158, -187500.02235174447, -187500.02235174447, -0.196, -0.774, -0.608, 192.0, 0.0, 0.0, 0.0, 0.0, 0.0, 0.0, 0.0, 0.0, 0.0, 1.67761500255443E9, 0.0, 2023-02-28 12:10:02.554
193.0, 27597.60947198981, -4283.041272525939, 15364.94676648936, -3205.39661710222, 15118.541135614054, 7656.567711420979, -187500.02235174447, -187500.02235174447, -0.196, -0.774, -0.608, 192.0, 0.0, 0.0, 0.0, 0.0, 0.0, 0.0, 0.0, 0.0, 0.0, 1.6776150025584404E9, 0.0, 2023-02-28 12:10:02.558
194.0, 27655.724007573608, -4280.13554574675, 15833.014647127946, -3203.317904867876, 15370.579406092098, 7777.647111135378, -187500.02235174447, -187500.02235174447, -0.196, -0.774, -0.608, 192.0, 0.0, 0.0, 0.0, 0.0, 0.0, 0.0, 0.0, 0.0, 0.0, 1.677615002562442E9, 0.0, 2023-02-28 12:10:02.562
195.0, 27541.05955851788, -4273.340615432336, 15164.473970469711, -3190.622114017262, 15027.681294403232, 7445.388429807238, -187500.02235174447, -187500.02235174447, -0.196, -0.774, -0.608, 192.0, 0.0, 0.0, 0.0, 0.0, 0.0, 0.0, 0.0, 0.0, 0.0, 1.677615002566454E9, 0.0, 2023-02-28 12:10:02.566
196.0, 27471.657391984154, -4273.072394498872, 14620.186641238528, -3190.4656518060747, 14736.192194961572, 7287.428651741583, -187500.02235174447, -187500.02235174447, -0.196, -0.774, -0.608, 192.0, 0.0, 0.0, 0.0, 0.0, 0.0, 0.0, 0.0, 0.0, 0.0, 1.6776150025714548E9, 0.0, 2023-02-28 12:10:02.571
197.0, 27573.626050189265, -4280.068490513384, 15197.688662730297, -3202.8038147454045, 15026.653114158287, 7591.434728078214, -187500.02235174447, -187500.02235174447, -0.196, -0.774, -0.608, 192.0, 0.0, 0.0, 0.0, 0.0, 0.0, 0.0, 0.0, 0.0, 0.0, 1.677615002574576E9, 0.0, 2023-02-28 12:10:02.574
198.0, 27664.552946633452, -4283.398900437224, 15830.667713960138, -3205.620134546773, 15358.46476059732, 7798.300123012081, -187500.02235174447, -187500.02235174447, -0.196, -0.774, -0.608, 192.0, 0.0, 0.0, 0.0, 0.0, 0.0, 0.0, 0.0, 0.0, 0.0, 1.6776150025784807E9, 0.0, 2023-02-28 12:10:02.578
199.0, 27568.21692803108, -4278.414461423691, 15311.906076896916, -3192.9243436961588, 15094.445955091234, 7514.075340518397, -187500.02235174447, -187500.02235174447, -0.2, -0.776, -0.608, 192.0, 249.0, 192.0, 231.0, 192.0, 237.0, 0.0, 0.0, 0.0, 0.0, 1.6776150025825076E9, 0.0, 2023-02-28 12:10:02.582
200.0, 27463.610763980243, -4279.397938179724, 14626.735702363934, -3189.996265172513, 14731.118348970218, 7280.991349338455, -187500.02235174447, -187500.02235174447, -0.2, -0.776, -0.608, 192.0, 0.0, 0.0, 0.0, 0.0, 0.0, 0.0, 0.0, 0.0, 0.0, 1.6776150025865643E9, 0.0, 2023-02-28 12:10:02.586
201.0, 27545.574610897853, -4284.583542893355, 15037.672524174754, -3201.708579267094, 14934.318057813414, 7528.805140114444, -187500.02235174447, -187500.02235174447, -0.2, -0.776, -0.608, 192.0, 0.0, 0.0, 0.0, 0.0, 0.0, 0.0, 0.0, 0.0, 0.0, 1.6776150025905077E9, 0.0, 2023-02-28 12:10:02.590
202.0, 27663.2788971995, -4286.461089427601, 15789.898132073658, -3207.4753293365634, 15328.692236982852, 7804.625666692933, -187500.02235174447, -187500.02235174447, -0.2, -0.776, -0.608, 192.0, 0.0, 0.0, 0.0, 0.0, 0.0, 0.0, 0.0, 0.0, 0.0, 1.6776150025945585E9, 0.0, 2023-02-28 12:10:02.594
203.0, 27595.530759755464, -4284.248266726526, 15455.024296644247, -3196.9253059536586, 15160.696525656764, 7581.756422729066, -187500.02235174447, -187500.02235174447, -0.2, -0.776, -0.608, 192.0, 0.0, 0.0, 0.0, 0.0, 0.0, 0.0, 0.0, 0.0, 0.0, 1.6776150025995352E9, 0.0, 2023-02-28 12:10:02.599
204.0, 27460.950906390062, -4285.567019649389, 14668.779333684366, -3192.0526256624016, 14748.44095092308, 7280.589017938259, -187500.02235174447, -187500.02235174447, -0.2, -0.776, -0.608, 192.0, 0.0, 0.0, 0.0, 0.0, 0.0, 0.0, 0.0, 0.0, 0.0, 1.6776150026024916E9, 0.0, 2023-02-28 12:10:02.602
205.0, 27518.841924529308, -4286.438737683146, 14890.888618336752, -3201.708579267094, 14858.523292365468, 7457.257206113006, -187500.02235174447, -187500.02235174447, -0.2, -0.776, -0.608, 192.0, 0.0, 0.0, 0.0, 0.0, 0.0, 0.0, 0.0, 0.0, 0.0, 1.6776150026065767E9, 0.0, 2023-02-28 12:10:02.606
206.0, 27648.3255801589, -4286.595199894333, 15708.090747367234, -3208.458806092597, 15286.000405073215, 7783.3468059714805, -187500.02235174447, -187500.02235174447, -0.2, -0.776, -0.608, 192.0, 0.0, 0.0, 0.0, 0.0, 0.0, 0.0, 0.0, 0.0, 0.0, 1.6776150026106496E9, 0.0, 2023-02-28 12:10:02.610
207.0, 27613.903893697727, -4282.303664958914, 15579.94819640496, -3199.2275356325554, 15227.483538089222, 7641.547339147012, -187500.02235174447, -187500.02235174447, -0.2, -0.776, -0.608, 192.0, 0.0, 0.0, 0.0, 0.0, 0.0, 0.0, 0.0, 0.0, 0.0, 1.6776150026145978E9, 0.0, 2023-02-28 12:10:02.614
208.0, 27474.943098419084, -4280.94020854714, 14751.77136084692, -3191.069148906368, 14795.491373001501, 7303.521907749404, -187500.02235174447, -187500.02235174447, -0.2, -0.776, -0.608, 192.0, 0.0, 0.0, 0.0, 0.0, 0.0, 0.0, 0.0, 0.0, 0.0, 1.6776150026185417E9, 0.0, 2023-02-28 12:10:02.618
209.0, 27491.796313738385, -4285.812888838397, 14766.747029631977, -3199.6969222661164, 14793.725585189533, 7397.622751906247, -187500.02235174447, -187500.02235174447, -0.198, -0.78, -0.61, 192.0, 249.0, 208.0, 231.0, 160.0, 236.0, 240.0, 0.0, 0.0, 0.0, 1.6776150026226213E9, 0.0, 2023-02-28 12:10:02.622
210.0, 27638.04377770946, -4288.003359795018, 15594.365071578632, -3209.7999107599153, 15223.72844502073, 7748.969822999218, -187500.02235174447, -187500.02235174447, -0.198, -0.78, -0.61, 192.0, 0.0, 0.0, 0.0, 0.0, 0.0, 0.0, 0.0, 0.0, 0.0, 1.6776150026276424E9, 0.0, 2023-02-28 12:10:02.627
211.0, 27628.94661771615, -4287.712787117099, 15687.147162812611, -3204.2790298794544, 15281.284186993145, 7693.649255472334, -187500.02235174447, -187500.02235174447, -0.198, -0.78, -0.61, 192.0, 0.0, 0.0, 0.0, 0.0, 0.0, 0.0, 0.0, 0.0, 0.0, 1.677615002630566E9, 0.0, 2023-02-28 12:10:02.630
212.0, 27488.041220669893, -4286.930476061163, 14869.945033782129, -3194.936000697136, 14856.735152809044, 7336.088399420786, -187500.02235174447, -187500.02235174447, -0.198, -0.78, -0.61, 192.0, 0.0, 0.0, 0.0, 0.0, 0.0, 0.0, 0.0, 0.0, 0.0, 1.6776150026345725E9, 0.0, 2023-02-28 12:10:02.634
213.0, 27479.994592665982, -4288.852726084319, 14676.311871565804, -3200.009846688491, 14745.714038099533, 7342.391591357183, -187500.02235174447, -187500.02235174447, -0.198, -0.78, -0.61, 192.0, 0.0, 0.0, 0.0, 0.0, 0.0, 0.0, 0.0, 0.0, 0.0, 1.6776150026387877E9, 0.0, 2023-02-28 12:10:02.638
214.0, 27614.976777431584, -4293.32307497538, 15460.947508924904, -3210.939849727136, 15148.961859817728, 7695.817374684499, -187500.02235174447, -187500.02235174447, -0.198, -0.78, -0.61, 192.0, 0.0, 0.0, 0.0, 0.0, 0.0, 0.0, 0.0, 0.0, 0.0, 1.6776150026426182E9, 0.0, 2023-02-28 12:10:02.642
215.0, 27644.101100456846, -4294.37360696478, 15766.115875973212, -3208.972896215069, 15312.688387952852, 7738.7997792720535, -187500.02235174447, -187500.02235174447, -0.198, -0.78, -0.61, 192.0, 0.0, 0.0, 0.0, 0.0, 0.0, 0.0, 0.0, 0.0, 0.0, 1.6776150026465685E9, 0.0, 2023-02-28 12:10:02.646
216.0, 27513.857485515775, -4291.1326040187605, 15012.459756429167, -3198.132300154245, 14923.633923963776, 7385.821030833845, -187500.02235174447, -187500.02235174447, -0.198, -0.78, -0.61, 192.0, 0.0, 0.0, 0.0, 0.0, 0.0, 0.0, 0.0, 0.0, 0.0, 1.6776150026505685E9, 0.0, 2023-02-28 12:10:02.650
217.0, 27455.72059818752, -4292.920743575185, 14620.901897061098, -3200.143957155223, 14710.867668493709, 7301.510250748426, -187500.02235174447, -187500.02235174447, -0.198, -0.78, -0.61, 192.0, 0.0, 0.0, 0.0, 0.0, 0.0, 0.0, 0.0, 0.0, 0.0, 1.6776150026555588E9, 0.0, 2023-02-28 12:10:02.655
218.0, 27595.70957371111, -4292.339598219347, 15310.3638065295, -3211.3198293828764, 15065.254576832604, 7637.792246078521, -187500.02235174447, -187500.02235174447, -0.198, -0.78, -0.61, 192.0, 0.0, 0.0, 0.0, 0.0, 0.0, 0.0, 0.0, 0.0, 0.0, 1.677615002658585E9, 0.0, 2023-02-28 12:10:02.658
219.0, 27655.299324428957, -4294.865345342797, 15809.142984049677, -3210.805739260404, 15329.586306761064, 7773.06500352204, -187500.02235174447, -187500.02235174447, -0.2, -0.782, -0.61, 192.0, 249.0, 192.0, 231.0, 144.0, 236.0, 240.0, 0.0, 0.0, 0.0, 1.6776150026626248E9, 0.0, 2023-02-28 12:10:02.662
220.0, 27540.299599206402, -4292.808984852909, 15164.161046047337, -3198.6240385322617, 15000.278055701025, 7445.857816440799, -187500.02235174447, -187500.02235174447, -0.2, -0.782, -0.61, 192.0, 0.0, 0.0, 0.0, 0.0, 0.0, 0.0, 0.0, 0.0, 0.0, 1.677615002666536E9, 0.0, 2023-02-28 12:10:02.666
221.0, 27456.212336565535, -4293.32307497538, 14597.41021363857, -3197.238230376033, 14701.077604422284, 7276.453945214027, -187500.02235174447, -187500.02235174447, -0.2, -0.782, -0.61, 192.0, 0.0, 0.0, 0.0, 0.0, 0.0, 0.0, 0.0, 0.0, 0.0, 1.6776150026706305E9, 0.0, 2023-02-28 12:10:02.670
222.0, 27566.02645707446, -4294.865345342797, 15151.152330774348, -3207.7435502700273, 14985.145924704782, 7574.469754036636, -187500.02235174447, -187500.02235174447, -0.2, -0.782, -0.61, 192.0, 0.0, 0.0, 0.0, 0.0, 0.0, 0.0, 0.0, 0.0, 0.0, 1.6776150026747074E9, 0.0, 2023-02-28 12:10:02.674
223.0, 27662.585993121385, -4295.424138954179, 15806.55018169286, -3210.269297393477, 15328.64753349394, 7794.0309398211175, -187500.02235174447, -187500.02235174447, -0.2, -0.782, -0.61, 192.0, 0.0, 0.0, 0.0, 0.0, 0.0, 0.0, 0.0, 0.0, 0.0, 1.6776150026785643E9, 0.0, 2023-02-28 12:10:02.678
224.0, 27562.673695406163, -4293.703054631121, 15315.951742643327, -3199.741625755027, 15077.592739771932, 7516.15405275274, -187500.02235174447, -187500.02235174447, -0.2, -0.782, -0.61, 192.0, 0.0, 0.0, 0.0, 0.0, 0.0, 0.0, 0.0, 0.0, 0.0, 1.6776150026825855E9, 0.0, 2023-02-28 12:10:02.682
225.0, 27467.701133215563, -4288.830374339864, 14613.972856279954, -3195.226573375055, 14708.788956259366, 7270.977767822477, -187500.02235174447, -187500.02235174447, -0.2, -0.782, -0.61, 192.0, 0.0, 0.0, 0.0, 0.0, 0.0, 0.0, 0.0, 0.0, 0.0, 1.677615002686653E9, 0.0, 2023-02-28 12:10:02.686
226.0, 27546.491032420523, -4288.651560384222, 14996.500610888079, -3205.0166374464798, 14900.321054496892, 7511.43783467267, -187500.02235174447, -187500.02235174447, -0.2, -0.782, -0.61, 192.0, 0.0, 0.0, 0.0, 0.0, 0.0, 0.0, 0.0, 0.0, 0.0, 1.677615002690622E9, 0.0, 2023-02-28 12:10:02.690
227.0, 27667.458673412642, -4287.757490606009, 15764.238329438966, -3209.7328555265494, 15302.428937247865, 7797.718977656243, -187500.02235174447, -187500.02235174447, -0.2, -0.782, -0.61, 192.0, 0.0, 0.0, 0.0, 0.0, 0.0, 0.0, 0.0, 0.0, 0.0, 1.6776150026946764E9, 0.0, 2023-02-28 12:10:02.694
228.0, 27598.928224912674, -4285.65642662721, 15461.573357769652, -3199.2722391214656, 15150.593537162966, 7586.852620464876, -187500.02235174447, -187500.02235174447, -0.2, -0.782, -0.61, 192.0, 0.0, 0.0, 0.0, 0.0, 0.0, 0.0, 0.0, 0.0, 0.0, 1.6776150026986141E9, 0.0, 2023-02-28 12:10:02.698
229.0, 27469.355162305255, -4285.65642662721, 14671.148618596628, -3193.1478611407115, 14734.694628083067, 7282.958302850521, -187500.02235174447, -187500.02235174447, -0.194, -0.782, -0.608, 192.0, 249.0, 240.0, 231.0, 144.0, 237.0, 0.0, 0.0, 0.0, 0.0, 1.677615002702564E9, 0.0, 2023-02-28 12:10:02.702
230.0, 27522.865238531263, -4287.310455716903, 14860.400838899714, -3201.3509513558092, 14826.60500128329, 7444.963746662587, -187500.02235174447, -187500.02235174447, -0.194, -0.782, -0.608, 192.0, 0.0, 0.0, 0.0, 0.0, 0.0, 0.0, 0.0, 0.0, 0.0, 1.6776150027066233E9, 0.0, 2023-02-28 12:10:02.706
231.0, 27657.735664574586, -4288.271580728481, 15684.196732544511, -3208.7046752816054, 15255.49027389172, 7773.914369811341, -187500.02235174447, -187500.02235174447, -0.194, -0.782, -0.608, 192.0, 0.0, 0.0, 0.0, 0.0, 0.0, 0.0, 0.0, 0.0, 0.0, 1.6776150027126195E9, 0.0, 2023-02-28 12:10:02.712
232.0, 27626.957312459628, -4284.404728937713, 15590.408812810043, -3200.7921577444267, 15219.615724040954, 7643.6484031258115, -187500.02235174447, -187500.02235174447, -0.194, -0.782, -0.608, 192.0, 0.0, 0.0, 0.0, 0.0, 0.0, 0.0, 0.0, 0.0, 0.0, 1.6776150027156048E9, 0.0, 2023-02-28 12:10:02.715
233.0, 27486.63306076921, -4283.622417881777, 14763.707192386055, -3193.326675096354, 14789.21053280956, 7301.823175170801, -187500.02235174447, -187500.02235174447, -0.194, -0.782, -0.608, 192.0, 0.0, 0.0, 0.0, 0.0, 0.0, 0.0, 0.0, 0.0, 0.0, 1.677615002719598E9, 0.0, 2023-02-28 12:10:02.719
234.0, 27499.619424297744, -4288.740967362042, 14746.094017755273, -3201.619172289273, 14769.384535477702, 7382.17769648763, -187500.02235174447, -187500.02235174447, -0.194, -0.782, -0.608, 192.0, 0.0, 0.0, 0.0, 0.0, 0.0, 0.0, 0.0, 0.0, 0.0, 1.6776150027226393E9, 0.0, 2023-02-28 12:10:02.722
235.0, 27635.495678841555, -4294.015979053495, 15572.147437590056, -3213.1526724282116, 15195.699357473775, 7734.105912936439, -187500.02235174447, -187500.02235174447, -0.194, -0.782, -0.608, 192.0, 0.0, 0.0, 0.0, 0.0, 0.0, 0.0, 0.0, 0.0, 0.0, 1.677615002726611E9, 0.0, 2023-02-28 12:10:02.726
236.0, 27642.08944345587, -4292.853688341819, 15696.423136761563, -3207.229460147555, 15268.856617075995, 7696.28676131806, -187500.02235174447, -187500.02235174447, -0.194, -0.782, -0.608, 192.0, 0.0, 0.0, 0.0, 0.0, 0.0, 0.0, 0.0, 0.0, 0.0, 1.6776150027306888E9, 0.0, 2023-02-28 12:10:02.730
237.0, 27502.72631677703, -4293.546592419933, 14887.692318879643, -3197.6182100317733, 14850.02962947245, 7339.21764364453, -187500.02235174447, -187500.02235174447, -0.194, -0.782, -0.608, 192.0, 0.0, 0.0, 0.0, 0.0, 0.0, 0.0, 0.0, 0.0, 0.0, 1.6776150027346098E9, 0.0, 2023-02-28 12:10:02.734
238.0, 27478.497025787477, -4294.75358662052, 14660.531539980359, -3202.3120763673874, 14723.29523841086, 7330.8357394737895, -187500.02235174447, -187500.02235174447, -0.194, -0.782, -0.608, 192.0, 0.0, 0.0, 0.0, 0.0, 0.0, 0.0, 0.0, 0.0, 0.0, 1.677615002739635E9, 0.0, 2023-02-28 12:10:02.739
239.0, 27617.435469321666, -4295.0665110428945, 15431.800834155183, -3212.079788694357, 15121.960952515718, 7685.289703046049, -187500.02235174447, -187500.02235174447, -0.188, -0.778, -0.614, 192.0, 250.0, 32.0, 231.0, 176.0, 236.0, 208.0, 0.0, 0.0, 0.0, 1.677615002742633E9, 0.0, 2023-02-28 12:10:02.742
240.0, 27654.315847672922, -4293.904220331218, 15770.474466141995, -3209.196413659622, 15307.145155327935, 7742.264299662626, -187500.02235174447, -187500.02235174447, -0.188, -0.778, -0.614, 192.0, 0.0, 0.0, 0.0, 0.0, 0.0, 0.0, 0.0, 0.0, 0.0, 1.6776150027466705E9, 0.0, 2023-02-28 12:10:02.746
241.0, 27518.663110573663, -4292.339598219347, 15031.63755317182, -3199.406349588198, 14925.600877475845, 7392.660664637168, -187500.02235174447, -187500.02235174447, -0.188, -0.778, -0.614, 192.0, 0.0, 0.0, 0.0, 0.0, 0.0, 0.0, 0.0, 0.0, 0.0, 1.677615002750743E9, 0.0, 2023-02-28 12:10:02.750
242.0, 27465.39890353667, -4295.826470354375, 14610.50833588938, -3202.8485182343147, 14699.825906732787, 7292.994236110954, -187500.02235174447, -187500.02235174447, -0.188, -0.778, -0.614, 192.0, 0.0, 0.0, 0.0, 0.0, 0.0, 0.0, 0.0, 0.0, 0.0, 1.6776150027547653E9, 0.0, 2023-02-28 12:10:02.754
243.0, 27585.919509639683, -4303.291953002447, 15278.937253825337, -3215.6113643182953, 15043.819253899963, 7622.861280782376, -187500.02235174447, -187500.02235174447, -0.188, -0.778, -0.614, 192.0, 0.0, 0.0, 0.0, 0.0, 0.0, 0.0, 0.0, 0.0, 0.0, 1.6776150027587268E9, 0.0, 2023-02-28 12:10:02.758
244.0, 27651.81245229393, -4305.460072214612, 15805.432594470096, -3215.8795852517587, 15322.009065390715, 7773.86966632243, -187500.02235174447, -187500.02235174447, -0.188, -0.778, -0.614, 192.0, 0.0, 0.0, 0.0, 0.0, 0.0, 0.0, 0.0, 0.0, 0.0, 1.6776150027626579E9, 0.0, 2023-02-28 12:10:02.762
245.0, 27535.583381126333, -4300.743854134543, 15183.33884278999, -3203.630829290251, 15003.697872602686, 7457.056040412908, -187500.02235174447, -187500.02235174447, -0.188, -0.778, -0.614, 192.0, 0.0, 0.0, 0.0, 0.0, 0.0, 0.0, 0.0, 0.0, 0.0, 1.6776150027666628E9, 0.0, 2023-02-28 12:10:02.766
246.0, 27467.455264026557, -4295.0665110428945, 14593.878638014632, -3200.30041936641, 14693.545066540846, 7276.8339248697675, -187500.02235174447, -187500.02235174447, -0.188, -0.778, -0.614, 192.0, 0.0, 0.0, 0.0, 0.0, 0.0, 0.0, 0.0, 0.0, 0.0, 1.6776150027698023E9, 0.0, 2023-02-28 12:10:02.769
247.0, 27576.285907779446, -4292.943095319641, 15118.943467014251, -3208.7270270260606, 14961.363668604336, 7565.529056254513, -187500.02235174447, -187500.02235174447, -0.188, -0.778, -0.614, 192.0, 0.0, 0.0, 0.0, 0.0, 0.0, 0.0, 0.0, 0.0, 0.0, 1.6776150027736423E9, 0.0, 2023-02-28 12:10:02.773
248.0, 27671.481987414598, -4291.46788018559, 15796.760117621438, -3211.3198293828764, 15317.225792077279, 7797.450756722779, -187500.02235174447, -187500.02235174447, -0.188, -0.778, -0.614, 192.0, 0.0, 0.0, 0.0, 0.0, 0.0, 0.0, 0.0, 0.0, 0.0, 1.6776150027787275E9, 0.0, 2023-02-28 12:10:02.778
249.0, 27571.27911702146, -4289.590333651345, 15335.822443464094, -3200.233364133044, 15083.806524730508, 7528.447512203159, -187500.02235174447, -187500.02235174447, -0.196, -0.776, -0.614, 192.0, 249.0, 224.0, 231.0, 192.0, 236.0, 208.0, 0.0, 0.0, 0.0, 1.6776150027826436E9, 0.0, 2023-02-28 12:10:02.782
250.0, 27471.858557684252, -4284.605894637811, 14617.012693525874, -3194.936000697136, 14707.693720781055, 7275.448116713538, -187500.02235174447, -187500.02235174447, -0.196, -0.776, -0.614, 192.0, 0.0, 0.0, 0.0, 0.0, 0.0, 0.0, 0.0, 0.0, 0.0, 1.677615002786734E9, 0.0, 2023-02-28 12:10:02.786
251.0, 27564.238317518037, -4285.522316160478, 14966.81749425143, -3205.2178031465774, 14881.433830432157, 7503.167689224207, -187500.02235174447, -187500.02235174447, -0.196, -0.776, -0.614, 192.0, 0.0, 0.0, 0.0, 0.0, 0.0, 0.0, 0.0, 0.0, 0.0, 1.6776150027908435E9, 0.0, 2023-02-28 12:10:02.790
252.0, 27673.113664759836, -4291.08790052985, 15748.88268099817, -3212.0127334609906, 15284.927521339361, 7797.920143356341, -187500.02235174447, -187500.02235174447, -0.196, -0.776, -0.614, 192.0, 0.0, 0.0, 0.0, 0.0, 0.0, 0.0, 0.0, 0.0, 0.0, 1.677615002795686E9, 0.0, 2023-02-28 12:10:02.795
253.0, 27606.863094194305, -4289.590333651345, 15477.554855055198, -3201.8426897338263, 15149.073618540004, 7597.000312447586, -187500.02235174447, -187500.02235174447, -0.196, -0.776, -0.614, 192.0, 0.0, 0.0, 0.0, 0.0, 0.0, 0.0, 0.0, 0.0, 0.0, 1.6776150027988024E9, 0.0, 2023-02-28 12:10:02.798
254.0, 27489.24821487048, -4287.645731883733, 14678.43528728906, -3195.0030559305023, 14731.6771425816, 7288.456831986527, -187500.02235174447, -187500.02235174447, -0.196, -0.776, -0.614, 192.0, 0.0, 0.0, 0.0, 0.0, 0.0, 0.0, 0.0, 0.0, 0.0, 1.6776150028017128E9, 0.0, 2023-02-28 12:10:02.801
255.0, 27525.63685484372, -4293.524240675479, 14832.617620541767, -3204.7260647685607, 14803.292131816404, 7438.414685537182, -187500.02235174447, -187500.02235174447, -0.196, -0.776, -0.614, 192.0, 0.0, 0.0, 0.0, 0.0, 0.0, 0.0, 0.0, 0.0, 0.0, 1.6776150028066678E9, 0.0, 2023-02-28 12:10:02.806
0.0, 27650.51605111552, -4297.771072121986, 15662.783761356326, -3214.404370117709, 15234.233764914725, 7774.271997722626, -187500.02235174447, -187500.02235174447, -0.196, -0.776, -0.614, 192.0, 0.0, 0.0, 0.0, 0.0, 0.0, 0.0, 0.0, 0.0, 0.0, 1.677615002810718E9, 0.0, 2023-02-28 12:10:02.810
1.0, 27630.4218328502, -4292.630170897266, 15603.864562972138, -3206.4471490916194, 15211.658503014864, 7657.03709805454, -187500.02235174447, -187500.02235174447, -0.196, -0.776, -0.614, 192.0, 0.0, 0.0, 0.0, 0.0, 0.0, 0.0, 0.0, 0.0, 0.0, 1.6776150028147385E9, 0.0, 2023-02-28 12:10:02.814
2.0, 27491.86336897175, -4290.886734829752, 14775.598320436278, -3197.126471653756, 14783.600244951278, 7310.316838063817, -187500.02235174447, -187500.02235174447, -0.196, -0.776, -0.614, 192.0, 0.0, 0.0, 0.0, 0.0, 0.0, 0.0, 0.0, 0.0, 0.0, 1.67761500281869E9, 0.0, 2023-02-28 12:10:02.818
3.0, 27500.53584582041, -4295.759415121009, 14724.502232611447, -3203.876698479259, 14751.860767824743, 7376.098021995786, -187500.02235174447, -187500.02235174447, -0.196, -0.776, -0.614, 192.0, 0.0, 0.0, 0.0, 0.0, 0.0, 0.0, 0.0, 0.0, 0.0, 1.6776150028217409E9, 0.0, 2023-02-28 12:10:02.821
4.0, 27640.971856233104, -4296.698188388132, 15544.431274465476, -3213.420893361675, 15179.874322399417, 7730.708447779232, -187500.02235174447, -187500.02235174447, -0.2, -0.778, -0.616, 192.0, 249.0, 192.0, 231.0, 176.0, 236.0, 192.0, 0.0, 0.0, 0.0, 1.6776150028256967E9, 0.0, 2023-02-28 12:10:02.825
5.0, 27642.648237067253, -4295.267676742992, 15704.715633954482, -3207.7211985255717, 15273.461076433789, 7706.188584111761, -187500.02235174447, -187500.02235174447, -0.2, -0.778, -0.616, 192.0, 0.0, 0.0, 0.0, 0.0, 0.0, 0.0, 0.0, 0.0, 0.0, 1.6776150028297951E9, 0.0, 2023-02-28 12:10:02.829
6.0, 27499.15003766418, -4295.111214531805, 14901.528048697479, -3198.266410620977, 14858.411533643191, 7347.465437348537, -187500.02235174447, -187500.02235174447, -0.2, -0.778, -0.616, 192.0, 0.0, 0.0, 0.0, 0.0, 0.0, 0.0, 0.0, 0.0, 0.0, 1.6776150028347428E9, 0.0, 2023-02-28 12:10:02.834
7.0, 27487.080095658315, -4298.106348288817, 14642.04664731582, -3202.647352534217, 14716.701473796544, 7324.152567881652, -187500.02235174447, -187500.02235174447, -0.2, -0.778, -0.616, 192.0, 0.0, 0.0, 0.0, 0.0, 0.0, 0.0, 0.0, 0.0, 0.0, 1.677615002838715E9, 0.0, 2023-02-28 12:10:02.838
8.0, 27625.3703386033, -4302.867269857797, 15402.43064194091, -3215.030218962457, 15107.745243042142, 7677.511295975602, -187500.02235174447, -187500.02235174447, -0.2, -0.778, -0.616, 192.0, 0.0, 0.0, 0.0, 0.0, 0.0, 0.0, 0.0, 0.0, 0.0, 1.677615002842748E9, 0.0, 2023-02-28 12:10:02.842
9.0, 27657.288629685478, -4302.554345435422, 15773.69311734356, -3213.085617194846, 15306.608713461008, 7751.875549778409, -187500.02235174447, -187500.02235174447, -0.2, -0.778, -0.616, 192.0, 0.0, 0.0, 0.0, 0.0, 0.0, 0.0, 0.0, 0.0, 0.0, 1.6776150028477423E9, 0.0, 2023-02-28 12:10:02.847
10.0, 27524.340453665314, -4298.039293055451, 15051.17297782576, -3201.3509513558092, 14934.295706068959, 7407.368112488761, -187500.02235174447, -187500.02235174447, -0.2, -0.778, -0.616, 192.0, 0.0, 0.0, 0.0, 0.0, 0.0, 0.0, 0.0, 0.0, 0.0, 1.6776150028517513E9, 0.0, 2023-02-28 12:10:02.851
11.0, 27463.16372909114, -4297.055816299417, 14602.12643171864, -3202.5802973008513, 14694.95322644153, 7294.290637289362, -187500.02235174447, -187500.02235174447, -0.2, -0.778, -0.616, 192.0, 0.0, 0.0, 0.0, 0.0, 0.0, 0.0, 0.0, 0.0, 0.0, 1.6776150028547287E9, 0.0, 2023-02-28 12:10:02.854
12.0, 27585.427771261668, -4301.012075068006, 15256.20552971429, -3214.6055358178064, 15028.217736270159, 7620.268478425561, -187500.02235174447, -187500.02235174447, -0.2, -0.778, -0.616, 192.0, 0.0, 0.0, 0.0, 0.0, 0.0, 0.0, 0.0, 0.0, 0.0, 1.6776150028577428E9, 0.0, 2023-02-28 12:10:02.857
13.0, 27658.696789586164, -4304.096615802839, 15809.142984049677, -3216.4383788631417, 15317.225792077279, 7781.2904454815925, -187500.02235174447, -187500.02235174447, -0.2, -0.778, -0.616, 192.0, 0.0, 0.0, 0.0, 0.0, 0.0, 0.0, 0.0, 0.0, 0.0, 1.677615002861808E9, 0.0, 2023-02-28 12:10:02.861
14.0, 27545.082872519837, -4305.057740814417, 15210.429157069822, -3206.201279902611, 15009.330512205424, 7466.622587039779, -187500.02235174447, -187500.02235174447, -0.198, -0.774, -0.608, 192.0, 249.0, 208.0, 231.0, 208.0, 237.0, 0.0, 0.0, 0.0, 0.0, 1.6776150028667507E9, 0.0, 2023-02-28 12:10:02.866
15.0, 27452.39018826368, -4307.136453048761, 14597.678434572033, -3205.0166374464798, 14684.67142399209, 7269.949587577533, -187500.02235174447, -187500.02235174447, -0.198, -0.774, -0.608, 192.0, 0.0, 0.0, 0.0, 0.0, 0.0, 0.0, 0.0, 0.0, 0.0, 1.6776150028708096E9, 0.0, 2023-02-28 12:10:02.870
16.0, 27545.954590553596, -4310.511566461511, 15099.788022016051, -3216.2148614185885, 14939.14603461576, 7547.647660690268, -187500.02235174447, -187500.02235174447, -0.198, -0.774, -0.608, 192.0, 0.0, 0.0, 0.0, 0.0, 0.0, 0.0, 0.0, 0.0, 0.0, 1.6776150028748007E9, 0.0, 2023-02-28 12:10:02.874
17.0, 27657.62390585231, -4309.103406560827, 15796.022510054412, -3219.299402153421, 15305.759347171706, 7788.912390340852, -187500.02235174447, -187500.02235174447, -0.198, -0.774, -0.608, 192.0, 0.0, 0.0, 0.0, 0.0, 0.0, 0.0, 0.0, 0.0, 0.0, 1.6776150028777916E9, 0.0, 2023-02-28 12:10:02.877
18.0, 27566.004105330005, -4304.834223369864, 15362.488074599276, -3207.274163636466, 15085.281739864558, 7533.119026794318, -187500.02235174447, -187500.02235174447, -0.198, -0.774, -0.608, 192.0, 0.0, 0.0, 0.0, 0.0, 0.0, 0.0, 0.0, 0.0, 0.0, 1.6776150028818736E9, 0.0, 2023-02-28 12:10:02.881
19.0, 27454.513603986932, -4301.593220423844, 14628.233269242439, -3201.01567518898, 14698.842429976754, 7270.553084677826, -187500.02235174447, -187500.02235174447, -0.198, -0.774, -0.608, 192.0, 0.0, 0.0, 0.0, 0.0, 0.0, 0.0, 0.0, 0.0, 0.0, 1.677615002885814E9, 0.0, 2023-02-28 12:10:02.885
20.0, 27531.805936313383, -4302.621400668789, 14951.10421789935, -3209.531689826452, 14857.808036542898, 7489.153145450729, -187500.02235174447, -187500.02235174447, -0.198, -0.774, -0.608, 192.0, 0.0, 0.0, 0.0, 0.0, 0.0, 0.0, 0.0, 0.0, 0.0, 1.6776150028908124E9, 0.0, 2023-02-28 12:10:02.890
21.0, 27656.70748432964, -4304.923630347685, 15741.953640217023, -3216.460730607597, 15269.996556043216, 7792.01928282014, -187500.02235174447, -187500.02235174447, -0.198, -0.774, -0.608, 192.0, 0.0, 0.0, 0.0, 0.0, 0.0, 0.0, 0.0, 0.0, 0.0, 1.6776150028947923E9, 0.0, 2023-02-28 12:10:02.894
22.0, 27600.82812319137, -4300.18506052316, 15505.650997835517, -3206.5142043249853, 15157.567281433021, 7605.248106151594, -187500.02235174447, -187500.02235174447, -0.198, -0.774, -0.608, 192.0, 0.0, 0.0, 0.0, 0.0, 0.0, 0.0, 0.0, 0.0, 0.0, 1.6776150028987856E9, 0.0, 2023-02-28 12:10:02.898
23.0, 27476.06068564185, -4295.267676742992, 14697.680139265078, -3197.8864309652367, 14735.722808328012, 7287.026320341387, -187500.02235174447, -187500.02235174447, -0.198, -0.774, -0.608, 192.0, 0.0, 0.0, 0.0, 0.0, 0.0, 0.0, 0.0, 0.0, 0.0, 1.6776150029028971E9, 0.0, 2023-02-28 12:10:02.902
24.0, 27514.952720994082, -4295.893525587741, 14822.201707625594, -3204.971933957569, 14794.26202705646, 7427.887013898732, -187500.02235174447, -187500.02235174447, -0.196, -0.782, -0.612, 192.0, 249.0, 224.0, 231.0, 144.0, 236.0, 224.0, 0.0, 0.0, 0.0, 1.6776150029058523E9, 0.0, 2023-02-28 12:10:02.905
25.0, 27654.695827328662, -4296.027636054473, 15650.870281561647, -3212.0127334609906, 15225.96361946626, 7768.639358119889, -187500.02235174447, -187500.02235174447, -0.196, -0.782, -0.612, 192.0, 0.0, 0.0, 0.0, 0.0, 0.0, 0.0, 0.0, 0.0, 0.0, 1.677615002909908E9, 0.0, 2023-02-28 12:10:02.909
26.0, 27630.28772238347, -4292.026673796973, 15627.535060350307, -3203.0496839344128, 15224.242535143201, 7666.491885959135, -187500.02235174447, -187500.02235174447, -0.196, -0.782, -0.612, 192.0, 0.0, 0.0, 0.0, 0.0, 0.0, 0.0, 0.0, 0.0, 0.0, 1.6776150029138129E9, 0.0, 2023-02-28 12:10:02.913
27.0, 27492.556273049864, -4289.165650506693, 14799.894666659196, -3193.974875685558, 14797.257160813471, 7315.8153671998225, -187500.02235174447, -187500.02235174447, -0.196, -0.782, -0.612, 192.0, 0.0, 0.0, 0.0, 0.0, 0.0, 0.0, 0.0, 0.0, 0.0, 1.6776150029178505E9, 0.0, 2023-02-28 12:10:02.917
28.0, 27502.122819676737, -4286.595199894333, 14714.823927262298, -3198.9593146990915, 14747.032791022397, 7370.5771411153255, -187500.02235174447, -187500.02235174447, -0.196, -0.782, -0.612, 192.0, 0.0, 0.0, 0.0, 0.0, 0.0, 0.0, 0.0, 0.0, 0.0, 1.6776150029229016E9, 0.0, 2023-02-28 12:10:02.922
29.0, 27632.99228346256, -4291.356121463314, 15525.432291678464, -3209.464634593086, 15172.364136262435, 7723.801758742543, -187500.02235174447, -187500.02235174447, -0.196, -0.782, -0.612, 192.0, 0.0, 0.0, 0.0, 0.0, 0.0, 0.0, 0.0, 0.0, 0.0, 1.677615002926856E9, 0.0, 2023-02-28 12:10:02.926
30.0, 27635.495678841555, -4293.345426719836, 15722.082939396256, -3205.843651991326, 15281.664166648885, 7716.850366216942, -187500.02235174447, -187500.02235174447, -0.196, -0.782, -0.612, 192.0, 0.0, 0.0, 0.0, 0.0, 0.0, 0.0, 0.0, 0.0, 0.0, 1.677615002930826E9, 0.0, 2023-02-28 12:10:02.930
31.0, 27497.764229507953, -4292.831336597364, 14933.222822335103, -3196.835898975837, 14871.934339038651, 7362.150533455674, -187500.02235174447, -187500.02235174447, -0.196, -0.782, -0.612, 192.0, 0.0, 0.0, 0.0, 0.0, 0.0, 0.0, 0.0, 0.0, 0.0, 1.6776150029338777E9, 0.0, 2023-02-28 12:10:02.933
32.0, 27472.663220484643, -4295.424138954179, 14644.28182176135, -3201.418006589175, 14710.822965004798, 7324.800768470856, -187500.02235174447, -187500.02235174447, -0.196, -0.782, -0.612, 192.0, 0.0, 0.0, 0.0, 0.0, 0.0, 0.0, 0.0, 0.0, 0.0, 1.6776150029378872E9, 0.0, 2023-02-28 12:10:02.937
33.0, 27599.375259801778, -4303.537822191456, 15385.62213011052, -3214.1585009287005, 15092.210780645702, 7671.073993572473, -187500.02235174447, -187500.02235174447, -0.196, -0.782, -0.612, 192.0, 0.0, 0.0, 0.0, 0.0, 0.0, 0.0, 0.0, 0.0, 0.0, 1.6776150029418528E9, 0.0, 2023-02-28 12:10:02.941
34.0, 27638.66962655421, -4307.002342582028, 15786.008928538435, -3212.973858472569, 15308.486259995254, 7755.541235869078, -187500.02235174447, -187500.02235174447, -0.202, -0.768, -0.614, 192.0, 249.0, 176.0, 232.0, 0.0, 236.0, 208.0, 0.0, 0.0, 0.0, 1.6776150029460196E9, 0.0, 2023-02-28 12:10:02.946
35.0, 27512.002290725984, -4304.588354180855, 15084.879408464361, -3202.401483345209, 14949.606651020844, 7412.374903246749, -187500.02235174447, -187500.02235174447, -0.202, -0.768, -0.614, 192.0, 0.0, 0.0, 0.0, 0.0, 0.0, 0.0, 0.0, 0.0, 0.0, 1.677615002950981E9, 0.0, 2023-02-28 12:10:02.950
36.0, 27456.72642668801, -4305.370665236791, 14609.882487044631, -3203.7649397569826, 14696.38373808667, 7289.306198275829, -187500.02235174447, -187500.02235174447, -0.202, -0.768, -0.614, 192.0, 0.0, 0.0, 0.0, 0.0, 0.0, 0.0, 0.0, 0.0, 0.0, 1.6776150029549353E9, 0.0, 2023-02-28 12:10:02.954
37.0, 27568.082817564347, -4312.210299040115, 15236.468939360255, -3217.06422770789, 15016.527773920034, 7605.806899762977, -187500.02235174447, -187500.02235174447, -0.202, -0.768, -0.614, 192.0, 0.0, 0.0, 0.0, 0.0, 0.0, 0.0, 0.0, 0.0, 0.0, 1.67761500295789E9, 0.0, 2023-02-28 12:10:02.957
38.0, 27638.691978298662, -4315.652467686233, 15815.222658541521, -3218.6064980753063, 15323.79720494714, 7777.0659657795395, -187500.02235174447, -187500.02235174447, -0.202, -0.768, -0.614, 192.0, 0.0, 0.0, 0.0, 0.0, 0.0, 0.0, 0.0, 0.0, 0.0, 1.677615002961908E9, 0.0, 2023-02-28 12:10:02.961
39.0, 27524.854543787784, -4314.624287441288, 15245.92372726485, -3208.6376200482396, 15034.051541572993, 7468.947168463132, -187500.02235174447, -187500.02235174447, -0.202, -0.768, -0.614, 192.0, 0.0, 0.0, 0.0, 0.0, 0.0, 0.0, 0.0, 0.0, 0.0, 1.6776150029658763E9, 0.0, 2023-02-28 12:10:02.965
40.0, 27421.43302219308, -4318.357028765325, 14618.46555691547, -3207.520032825474, 14701.994025944952, 7266.239197997952, -187500.02235174447, -187500.02235174447, -0.202, -0.768, -0.614, 192.0, 0.0, 0.0, 0.0, 0.0, 0.0, 0.0, 0.0, 0.0, 0.0, 1.6776150029699337E9, 0.0, 2023-02-28 12:10:02.969
41.0, 27524.11693622076, -4322.469749745101, 15089.41681258879, -3219.746437042527, 14939.86129043833, 7533.990744828075, -187500.02235174447, -187500.02235174447, -0.202, -0.768, -0.614, 192.0, 0.0, 0.0, 0.0, 0.0, 0.0, 0.0, 0.0, 0.0, 0.0, 1.6776150029739282E9, 0.0, 2023-02-28 12:10:02.973
42.0, 27641.32948414439, -4323.1850055676705, 15801.856315357247, -3224.68617256715, 15311.012007118703, 7786.319587984037, -187500.02235174447, -187500.02235174447, -0.202, -0.768, -0.614, 192.0, 0.0, 0.0, 0.0, 0.0, 0.0, 0.0, 0.0, 0.0, 0.0, 1.6776150029788804E9, 0.0, 2023-02-28 12:10:02.978
43.0, 27540.612523628777, -4324.61551721281, 15402.207124496357, -3214.8514050068147, 15105.487716852156, 7538.662259419234, -187500.02235174447, -187500.02235174447, -0.202, -0.768, -0.614, 192.0, 0.0, 0.0, 0.0, 0.0, 0.0, 0.0, 0.0, 0.0, 0.0, 1.6776150029829915E9, 0.0, 2023-02-28 12:10:02.982
44.0, 27417.23089423548, -4324.302592790436, 14658.117551579184, -3210.2916491379324, 14714.376892373193, 7268.29555848784, -187500.02235174447, -187500.02235174447, -0.20400000000000001, -0.768, -0.608, 192.0, 249.0, 160.0, 232.0, 0.0, 237.0, 0.0, 0.0, 0.0, 0.0, 1.6776150029859824E9, 0.0, 2023-02-28 12:10:02.985
45.0, 27493.78561899491, -4323.408523012224, 14947.751456231053, -3219.277050408966, 14857.450408631614, 7475.406822610716, -187500.02235174447, -187500.02235174447, -0.20400000000000001, -0.768, -0.608, 192.0, 0.0, 0.0, 0.0, 0.0, 0.0, 0.0, 0.0, 0.0, 0.0, 1.6776150029900184E9, 0.0, 2023-02-28 12:10:02.990
46.0, 27633.3722631183, -4320.681610188676, 15744.144111173644, -3225.110855711801, 15274.131628767447, 7785.246704250182, -187500.02235174447, -187500.02235174447, -0.20400000000000001, -0.768, -0.608, 192.0, 0.0, 0.0, 0.0, 0.0, 0.0, 0.0, 0.0, 0.0, 0.0, 1.6776150029939811E9, 0.0, 2023-02-28 12:10:02.993
47.0, 27586.992393373537, -4315.47365373059, 15541.302030241732, -3215.5666608293845, 15177.080354342505, 7613.138271944317, -187500.02235174447, -187500.02235174447, -0.20400000000000001, -0.768, -0.608, 192.0, 0.0, 0.0, 0.0, 0.0, 0.0, 0.0, 0.0, 0.0, 0.0, 1.6776150029979403E9, 0.0, 2023-02-28 12:10:02.997
48.0, 27455.47472899851, -4312.411464740213, 14731.319514670315, -3207.96706771458, 14755.459398682047, 7289.7532331649345, -187500.02235174447, -187500.02235174447, -0.20400000000000001, -0.768, -0.608, 192.0, 0.0, 0.0, 0.0, 0.0, 0.0, 0.0, 0.0, 0.0, 0.0, 1.6776150030019865E9, 0.0, 2023-02-28 12:10:03.001
49.0, 27482.162711878147, -4316.367723508803, 14821.352341336293, -3216.5501375854183, 14793.412660767159, 7413.246621280507, -187500.02235174447, -187500.02235174447, -0.20400000000000001, -0.768, -0.608, 192.0, 0.0, 0.0, 0.0, 0.0, 0.0, 0.0, 0.0, 0.0, 0.0, 1.6776150030069263E9, 0.0, 2023-02-28 12:10:03.006
50.0, 27613.300396597435, -4320.5698514664, 15648.590403627206, -3225.714352812094, 15224.019017698649, 7754.356593412947, -187500.02235174447, -187500.02235174447, -0.20400000000000001, -0.768, -0.608, 192.0, 0.0, 0.0, 0.0, 0.0, 0.0, 0.0, 0.0, 0.0, 0.0, 1.677615003010968E9, 0.0, 2023-02-28 12:10:03.010
51.0, 27595.32959405537, -4319.85459564383, 15660.794456099804, -3219.7687887869824, 15236.200718426791, 7668.011804582096, -187500.02235174447, -187500.02235174447, -0.20400000000000001, -0.768, -0.608, 192.0, 0.0, 0.0, 0.0, 0.0, 0.0, 0.0, 0.0, 0.0, 0.0, 1.6776150030139456E9, 0.0, 2023-02-28 12:10:03.013
52.0, 27456.32409528781, -4316.323020019891, 14839.770178767465, -3210.3587043712982, 14808.813012696864, 7318.363466067728, -187500.02235174447, -187500.02235174447, -0.20400000000000001, -0.768, -0.608, 192.0, 0.0, 0.0, 0.0, 0.0, 0.0, 0.0, 0.0, 0.0, 0.0, 1.6776150030179784E9, 0.0, 2023-02-28 12:10:03.017
53.0, 27455.362970276234, -4317.462958987112, 14721.641209321167, -3215.4996055960187, 14741.73542758649, 7354.372126385228, -187500.02235174447, -187500.02235174447, -0.20400000000000001, -0.768, -0.608, 192.0, 0.0, 0.0, 0.0, 0.0, 0.0, 0.0, 0.0, 0.0, 0.0, 1.6776150030219908E9, 0.0, 2023-02-28 12:10:03.021
54.0, 27594.88255916626, -4317.887642131763, 15521.923067798982, -3224.2167859335887, 15158.99779307816, 7708.177889368283, -187500.02235174447, -187500.02235174447, -0.198, -0.784, -0.604, 192.0, 249.0, 208.0, 231.0, 128.0, 237.0, 32.0, 0.0, 0.0, 0.0, 1.677615003025968E9, 0.0, 2023-02-28 12:10:03.025
55.0, 27608.159495372714, -4315.250136286037, 15748.547404831339, -3218.8076637754043, 15288.280283007656, 7715.3751510828915, -187500.02235174447, -187500.02235174447, -0.198, -0.784, -0.604, 192.0, 0.0, 0.0, 0.0, 0.0, 0.0, 0.0, 0.0, 0.0, 0.0, 1.6776150030299823E9, 0.0, 2023-02-28 12:10:03.029
56.0, 27469.779845449906, -4311.584450195366, 14968.516226830034, -3206.7600735139936, 14887.80407760192, 7357.166094442141, -187500.02235174447, -187500.02235174447, -0.198, -0.784, -0.604, 192.0, 0.0, 0.0, 0.0, 0.0, 0.0, 0.0, 0.0, 0.0, 0.0, 1.6776150030349386E9, 0.0, 2023-02-28 12:10:03.034
57.0, 27432.586542676276, -4314.356066507825, 14646.494644462426, -3209.531689826452, 14717.81906101931, 7301.107919348231, -187500.02235174447, -187500.02235174447, -0.198, -0.784, -0.604, 192.0, 0.0, 0.0, 0.0, 0.0, 0.0, 0.0, 0.0, 0.0, 0.0, 1.6776150030390005E9, 0.0, 2023-02-28 12:10:03.039
58.0, 27563.344247739824, -4317.798235153942, 15370.355888647544, -3220.0817132093566, 15091.249655634125, 7646.062391526984, -187500.02235174447, -187500.02235174447, -0.198, -0.784, -0.604, 192.0, 0.0, 0.0, 0.0, 0.0, 0.0, 0.0, 0.0, 0.0, 0.0, 1.677615003041967E9, 0.0, 2023-02-28 12:10:03.041
59.0, 27615.714384998606, -4318.1335113207715, 15800.291693245375, -3219.6346783202507, 15321.070292123592, 7750.489741622179, -187500.02235174447, -187500.02235174447, -0.198, -0.784, -0.604, 192.0, 0.0, 0.0, 0.0, 0.0, 0.0, 0.0, 0.0, 0.0, 0.0, 1.6776150030459783E9, 0.0, 2023-02-28 12:10:03.045
60.0, 27494.031488183915, -4315.361895008314, 15114.115490211903, -3208.972896215069, 14970.10320068636, 7414.364208503272, -187500.02235174447, -187500.02235174447, -0.198, -0.784, -0.604, 192.0, 0.0, 0.0, 0.0, 0.0, 0.0, 0.0, 0.0, 0.0, 0.0, 1.6776150030499568E9, 0.0, 2023-02-28 12:10:03.049
61.0, 27429.345539730257, -4319.0722845878945, 14611.067129500763, -3210.515166582485, 14702.418709089603, 7274.084660301764, -187500.02235174447, -187500.02235174447, -0.198, -0.784, -0.604, 192.0, 0.0, 0.0, 0.0, 0.0, 0.0, 0.0, 0.0, 0.0, 0.0, 1.6776150030539987E9, 0.0, 2023-02-28 12:10:03.053
62.0, 27533.39291016971, -4329.219976570604, 15218.63224728492, -3224.0156202334906, 15011.431576184223, 7585.8244402199325, -187500.02235174447, -187500.02235174447, -0.198, -0.784, -0.604, 192.0, 0.0, 0.0, 0.0, 0.0, 0.0, 0.0, 0.0, 0.0, 0.0, 1.6776150030579834E9, 0.0, 2023-02-28 12:10:03.057
63.0, 27611.89223669675, -4334.472636517601, 15822.866955145235, -3227.8601202798036, 15327.798167204639, 7774.808439589553, -187500.02235174447, -187500.02235174447, -0.198, -0.784, -0.604, 192.0, 0.0, 0.0, 0.0, 0.0, 0.0, 0.0, 0.0, 0.0, 0.0, 1.6776150030629983E9, 0.0, 2023-02-28 12:10:03.062
64.0, 27500.066459186848, -4332.617441727811, 15273.572835156065, -3216.7736550299715, 15045.361524267379, 7476.636168555757, -187500.02235174447, -187500.02235174447, -0.196, -0.79, -0.606, 192.0, 249.0, 224.0, 231.0, 80.0, 237.0, 16.0, 0.0, 0.0, 0.0, 1.6776150030670216E9, 0.0, 2023-02-28 12:10:03.067
65.0, 27408.625472620188, -4331.701020205142, 14616.94563829251, -3213.3761898727644, 14699.58003754378, 7257.790238593846, -187500.02235174447, -187500.02235174447, -0.196, -0.79, -0.606, 192.0, 0.0, 0.0, 0.0, 0.0, 0.0, 0.0, 0.0, 0.0, 0.0, 1.6776150030700896E9, 0.0, 2023-02-28 12:10:03.070
66.0, 27497.92069171914, -4334.76320919552, 15065.276928577057, -3223.0544952219125, 14927.165499587716, 7519.506814421036, -187500.02235174447, -187500.02235174447, -0.196, -0.79, -0.606, 192.0, 0.0, 0.0, 0.0, 0.0, 0.0, 0.0, 0.0, 0.0, 0.0, 1.6776150030741014E9, 0.0, 2023-02-28 12:10:03.074
67.0, 27609.724117484584, -4336.484293518579, 15798.83882985578, -3227.9048237687143, 15313.157774586412, 7782.743308871188, -187500.02235174447, -187500.02235174447, -0.196, -0.79, -0.606, 192.0, 0.0, 0.0, 0.0, 0.0, 0.0, 0.0, 0.0, 0.0, 0.0, 1.6776150030779746E9, 0.0, 2023-02-28 12:10:03.077
68.0, 27530.55423862389, -4332.595089983355, 15425.229421285323, -3217.4442073636305, 15127.370074673901, 7545.859521133843, -187500.02235174447, -187500.02235174447, -0.196, -0.79, -0.606, 192.0, 0.0, 0.0, 0.0, 0.0, 0.0, 0.0, 0.0, 0.0, 0.0, 1.677615003082012E9, 0.0, 2023-02-28 12:10:03.082
69.0, 27417.387356446667, -4331.723371949598, 14659.61511845769, -3212.482120094552, 14725.843337278766, 7261.321814217784, -187500.02235174447, -187500.02235174447, -0.196, -0.79, -0.606, 192.0, 0.0, 0.0, 0.0, 0.0, 0.0, 0.0, 0.0, 0.0, 0.0, 1.6776150030860093E9, 0.0, 2023-02-28 12:10:03.086
70.0, 27476.753589719963, -4334.874967917796, 14923.030426863485, -3221.489873110041, 14857.182187698148, 7453.837389211344, -187500.02235174447, -187500.02235174447, -0.196, -0.79, -0.606, 192.0, 0.0, 0.0, 0.0, 0.0, 0.0, 0.0, 0.0, 0.0, 0.0, 1.6776150030900562E9, 0.0, 2023-02-28 12:10:03.090
71.0, 27596.536588255953, -4338.786523197475, 15733.929363957568, -3229.1565214582115, 15280.390117214933, 7769.555779642556, -187500.02235174447, -187500.02235174447, -0.196, -0.79, -0.606, 192.0, 0.0, 0.0, 0.0, 0.0, 0.0, 0.0, 0.0, 0.0, 0.0, 1.6776150030951056E9, 0.0, 2023-02-28 12:10:03.095
72.0, 27544.74759635301, -4337.512473763522, 15564.570196219707, -3220.30523065391, 15198.135697619404, 7609.2490684090935, -187500.02235174447, -187500.02235174447, -0.196, -0.79, -0.606, 192.0, 0.0, 0.0, 0.0, 0.0, 0.0, 0.0, 0.0, 0.0, 0.0, 1.6776150030980425E9, 0.0, 2023-02-28 12:10:03.098
73.0, 27414.41457443411, -4333.824435928397, 14742.96477353153, -3212.169195672178, 14769.16101803315, 7277.459773714516, -187500.02235174447, -187500.02235174447, -0.196, -0.79, -0.606, 192.0, 0.0, 0.0, 0.0, 0.0, 0.0, 0.0, 0.0, 0.0, 0.0, 1.677615003102062E9, 0.0, 2023-02-28 12:10:03.102
74.0, 27444.790595148876, -4334.1597120952265, 14804.186201594615, -3219.1429399422336, 14793.12208808924, 7391.31955996985, -187500.02235174447, -187500.02235174447, -0.2, -0.782, -0.612, 192.0, 249.0, 192.0, 231.0, 144.0, 236.0, 224.0, 0.0, 0.0, 0.0, 1.6776150031060233E9, 0.0, 2023-02-28 12:10:03.106
75.0, 27589.60754747481, -4336.551348751945, 15636.743979065894, -3228.105989468812, 15226.38830261091, 7739.045648461062, -187500.02235174447, -187500.02235174447, -0.2, -0.782, -0.612, 192.0, 0.0, 0.0, 0.0, 0.0, 0.0, 0.0, 0.0, 0.0, 0.0, 1.6776150031100678E9, 0.0, 2023-02-28 12:10:03.110
76.0, 27604.292643581946, -4333.422104528201, 15683.280311021843, -3222.272184165977, 15258.731276837741, 7666.2460167701265, -187500.02235174447, -187500.02235174447, -0.2, -0.782, -0.612, 192.0, 0.0, 0.0, 0.0, 0.0, 0.0, 0.0, 0.0, 0.0, 0.0, 1.6776150031140273E9, 0.0, 2023-02-28 12:10:03.114
77.0, 27489.315270103845, -4329.354087037335, 14858.970327254574, -3212.146843927723, 14832.192937397116, 7309.601582241247, -187500.02235174447, -187500.02235174447, -0.2, -0.782, -0.612, 192.0, 0.0, 0.0, 0.0, 0.0, 0.0, 0.0, 0.0, 0.0, 0.0, 1.6776150031180336E9, 0.0, 2023-02-28 12:10:03.118
78.0, 27469.891604172186, -4330.2258050710925, 14708.319569625804, -3216.7960067744266, 14748.329192200805, 7334.143797653174, -187500.02235174447, -187500.02235174447, -0.2, -0.782, -0.612, 192.0, 0.0, 0.0, 0.0, 0.0, 0.0, 0.0, 0.0, 0.0, 0.0, 1.6776150031231349E9, 0.0, 2023-02-28 12:10:03.123
79.0, 27582.18676831565, -4332.259813816526, 15506.88034378056, -3226.5413673569406, 15164.116342558425, 7692.442261271747, -187500.02235174447, -187500.02235174447, -0.2, -0.782, -0.612, 192.0, 0.0, 0.0, 0.0, 0.0, 0.0, 0.0, 0.0, 0.0, 0.0, 1.6776150031260574E9, 0.0, 2023-02-28 12:10:03.126
80.0, 27602.862131936807, -4327.901223647741, 15767.658146340627, -3221.199300432122, 15310.386158273956, 7713.654066759833, -187500.02235174447, -187500.02235174447, -0.2, -0.782, -0.612, 192.0, 0.0, 0.0, 0.0, 0.0, 0.0, 0.0, 0.0, 0.0, 0.0, 1.6776150031300666E9, 0.0, 2023-02-28 12:10:03.130
81.0, 27478.5864327653, -4322.961488123118, 14993.72899457562, -3208.9952479595245, 14914.156784314728, 7359.378917143216, -187500.02235174447, -187500.02235174447, -0.2, -0.782, -0.612, 192.0, 0.0, 0.0, 0.0, 0.0, 0.0, 0.0, 0.0, 0.0, 0.0, 1.67761500313405E9, 0.0, 2023-02-28 12:10:03.134
82.0, 27427.512696684924, -4324.593165468355, 14639.56560368128, -3211.789216016438, 14725.15043320065, 7291.384910510173, -187500.02235174447, -187500.02235174447, -0.2, -0.782, -0.612, 192.0, 0.0, 0.0, 0.0, 0.0, 0.0, 0.0, 0.0, 0.0, 0.0, 1.6776150031380937E9, 0.0, 2023-02-28 12:10:03.138
83.0, 27549.93320106664, -4325.956621880129, 15351.245147138257, -3222.1157219547895, 15091.517876567588, 7632.517234387069, -187500.02235174447, -187500.02235174447, -0.2, -0.782, -0.612, 192.0, 0.0, 0.0, 0.0, 0.0, 0.0, 0.0, 0.0, 0.0, 0.0, 1.6776150031420712E9, 0.0, 2023-02-28 12:10:03.142
84.0, 27634.445146852155, -4323.117950334305, 15811.825193384313, -3221.132245198756, 15338.929335943383, 7750.646203833367, -187500.02235174447, -187500.02235174447, -0.20600000000000002, -0.78, -0.614, 192.0, 249.0, 144.0, 231.0, 160.0, 236.0, 208.0, 0.0, 0.0, 0.0, 1.6776150031461513E9, 0.0, 2023-02-28 12:10:03.146
85.0, 27517.81374428436, -4318.446435743146, 15141.317563214012, -3210.4481113491192, 14995.025395754028, 7416.241755037518, -187500.02235174447, -187500.02235174447, -0.20600000000000002, -0.78, -0.614, 192.0, 0.0, 0.0, 0.0, 0.0, 0.0, 0.0, 0.0, 0.0, 0.0, 1.6776150031501005E9, 0.0, 2023-02-28 12:10:03.150
86.0, 27442.175441047602, -4320.391037510757, 14610.195411467006, -3211.3198293828764, 14709.995950459952, 7262.081773529265, -187500.02235174447, -187500.02235174447, -0.20600000000000002, -0.78, -0.614, 192.0, 0.0, 0.0, 0.0, 0.0, 0.0, 0.0, 0.0, 0.0, 0.0, 1.6776150031530902E9, 0.0, 2023-02-28 12:10:03.153
87.0, 27554.492956935523, -4326.448360258146, 15194.581770251008, -3222.6745155661724, 15009.822250583442, 7564.970262643131, -187500.02235174447, -187500.02235174447, -0.20600000000000002, -0.78, -0.614, 192.0, 0.0, 0.0, 0.0, 0.0, 0.0, 0.0, 0.0, 0.0, 0.0, 1.6776150031580744E9, 0.0, 2023-02-28 12:10:03.158
88.0, 27628.253713638034, -4329.689363204166, 15821.101167333267, -3225.557890600907, 15342.706780756329, 7765.085430751495, -187500.02235174447, -187500.02235174447, -0.20600000000000002, -0.78, -0.614, 192.0, 0.0, 0.0, 0.0, 0.0, 0.0, 0.0, 0.0, 0.0, 0.0, 1.6776150031620948E9, 0.0, 2023-02-28 12:10:03.162
89.0, 27529.011968256473, -4327.677706203188, 15297.377443000967, -3214.404370117709, 15073.323556580968, 7474.8256772548775, -187500.02235174447, -187500.02235174447, -0.20600000000000002, -0.78, -0.614, 192.0, 0.0, 0.0, 0.0, 0.0, 0.0, 0.0, 0.0, 0.0, 0.0, 1.677615003166096E9, 0.0, 2023-02-28 12:10:03.166
90.0, 27433.502964198946, -4326.269546302503, 14621.7512633504, -3211.811567760893, 14715.807404018333, 7242.680459342058, -187500.02235174447, -187500.02235174447, -0.20600000000000002, -0.78, -0.614, 192.0, 0.0, 0.0, 0.0, 0.0, 0.0, 0.0, 0.0, 0.0, 0.0, 1.677615003170246E9, 0.0, 2023-02-28 12:10:03.170
91.0, 27498.25596788597, -4328.504720748034, 15044.288640533525, -3222.808626032904, 14928.5736594884, 7491.455375129626, -187500.02235174447, -187500.02235174447, -0.20600000000000002, -0.78, -0.614, 192.0, 0.0, 0.0, 0.0, 0.0, 0.0, 0.0, 0.0, 0.0, 0.0, 1.6776150031741128E9, 0.0, 2023-02-28 12:10:03.174
92.0, 27618.70951875562, -4335.232595829081, 15793.541466419872, -3228.6424313357393, 15318.74571070024, 7763.207884217249, -187500.02235174447, -187500.02235174447, -0.20600000000000002, -0.78, -0.614, 192.0, 0.0, 0.0, 0.0, 0.0, 0.0, 0.0, 0.0, 0.0, 0.0, 1.6776150031781423E9, 0.0, 2023-02-28 12:10:03.178
93.0, 27567.814596630884, -4339.457075531134, 15453.862005932571, -3220.327582398365, 15147.3748859614, 7535.957698340142, -187500.02235174447, -187500.02235174447, -0.20600000000000002, -0.78, -0.614, 192.0, 0.0, 0.0, 0.0, 0.0, 0.0, 0.0, 0.0, 0.0, 0.0, 1.6776150031811109E9, 0.0, 2023-02-28 12:10:03.181
94.0, 27426.350405973248, -4336.707810963132, 14681.452772790524, -3214.784349773449, 14742.785959575887, 7242.993383764432, -187500.02235174447, -187500.02235174447, -0.2, -0.784, -0.604, 192.0, 249.0, 192.0, 231.0, 128.0, 237.0, 32.0, 0.0, 0.0, 0.0, 1.6776150031851597E9, 0.0, 2023-02-28 12:10:03.185
95.0, 27496.62429054073, -4337.892453419263, 14913.106252325328, -3224.261489422499, 14855.483455119545, 7424.981287119543, -187500.02235174447, -187500.02235174447, -0.2, -0.784, -0.604, 192.0, 0.0, 0.0, 0.0, 0.0, 0.0, 0.0, 0.0, 0.0, 0.0, 1.6776150031901765E9, 0.0, 2023-02-28 12:10:03.190
96.0, 27630.51123982802, -4343.033354643983, 15727.000323176424, -3233.1127802268006, 15277.842018347028, 7741.839616517976, -187500.02235174447, -187500.02235174447, -0.2, -0.784, -0.604, 192.0, 0.0, 0.0, 0.0, 0.0, 0.0, 0.0, 0.0, 0.0, 0.0, 1.677615003194193E9, 0.0, 2023-02-28 12:10:03.194
97.0, 27544.814651586374, -4340.95464240964, 15590.878199443603, -3223.836806277848, 15214.430119327322, 7595.659207780267, -187500.02235174447, -187500.02235174447, -0.2, -0.784, -0.604, 192.0, 0.0, 0.0, 0.0, 0.0, 0.0, 0.0, 0.0, 0.0, 0.0, 1.6776150031981354E9, 0.0, 2023-02-28 12:10:03.198
98.0, 27397.226082947982, -4335.0984853623495, 14769.54099768889, -3214.694942795628, 14783.6896519291, 7263.556988663315, -187500.02235174447, -187500.02235174447, -0.2, -0.784, -0.604, 192.0, 0.0, 0.0, 0.0, 0.0, 0.0, 0.0, 0.0, 0.0, 0.0, 1.677615003202146E9, 0.0, 2023-02-28 12:10:03.202
99.0, 27442.80128989235, -4333.198587083649, 14795.06668985685, -3221.4228178766753, 14788.607035709267, 7361.9493677555765, -187500.02235174447, -187500.02235174447, -0.2, -0.784, -0.604, 192.0, 0.0, 0.0, 0.0, 0.0, 0.0, 0.0, 0.0, 0.0, 0.0, 1.6776150032062397E9, 0.0, 2023-02-28 12:10:03.206
100.0, 27602.638614492254, -4334.606746984333, 15618.303789890266, -3229.201224947122, 15217.067625173047, 7712.625886514889, -187500.02235174447, -187500.02235174447, -0.2, -0.784, -0.604, 192.0, 0.0, 0.0, 0.0, 0.0, 0.0, 0.0, 0.0, 0.0, 0.0, 1.677615003209187E9, 0.0, 2023-02-28 12:10:03.209
101.0, 27609.411193062213, -4331.544557993956, 15698.837125162736, -3223.300364410921, 15264.766247840673, 7660.546321934024, -187500.02235174447, -187500.02235174447, -0.2, -0.784, -0.604, 192.0, 0.0, 0.0, 0.0, 0.0, 0.0, 0.0, 0.0, 0.0, 0.0, 1.6776150032131784E9, 0.0, 2023-02-28 12:10:03.213
102.0, 27484.57670027932, -4326.224842813593, 14881.545589154433, -3212.3480096278204, 14844.911079992185, 7304.170108338608, -187500.02235174447, -187500.02235174447, -0.2, -0.784, -0.604, 192.0, 0.0, 0.0, 0.0, 0.0, 0.0, 0.0, 0.0, 0.0, 0.0, 1.6776150032182243E9, 0.0, 2023-02-28 12:10:03.218
103.0, 27482.900319445172, -4324.660220701721, 14695.802592730832, -3215.298439895921, 14745.423465421614, 7310.227431085996, -187500.02235174447, -187500.02235174447, -0.2, -0.784, -0.604, 192.0, 0.0, 0.0, 0.0, 0.0, 0.0, 0.0, 0.0, 0.0, 0.0, 1.677615003222242E9, 0.0, 2023-02-28 12:10:03.222
104.0, 27620.095326911847, -4323.386171267769, 15474.962052698382, -3223.7697510444823, 15151.66642089682, 7666.044851070029, -187500.02235174447, -187500.02235174447, -0.2, -0.79, -0.602, 192.0, 249.0, 192.0, 231.0, 80.0, 237.0, 48.0, 0.0, 0.0, 0.0, 1.677615003226198E9, 0.0, 2023-02-28 12:10:03.226
105.0, 27633.551077073942, -4318.848767143341, 15767.16640796261, -3219.9252509981693, 15314.141251342448, 7704.199278855238, -187500.02235174447, -187500.02235174447, -0.2, -0.79, -0.602, 192.0, 0.0, 0.0, 0.0, 0.0, 0.0, 0.0, 0.0, 0.0, 0.0, 1.6776150032301853E9, 0.0, 2023-02-28 12:10:03.230
106.0, 27527.156773466682, -4316.2559647865255, 15013.622047140843, -3208.7046752816054, 14925.846746664853, 7354.305071151862, -187500.02235174447, -187500.02235174447, -0.2, -0.79, -0.602, 192.0, 0.0, 0.0, 0.0, 0.0, 0.0, 0.0, 0.0, 0.0, 0.0, 1.6776150032342088E9, 0.0, 2023-02-28 12:10:03.234
107.0, 27517.16554369516, -4318.647601443244, 14632.971839066964, -3210.6269253047617, 14722.177651188094, 7272.34122423425, -187500.02235174447, -187500.02235174447, -0.2, -0.79, -0.602, 192.0, 0.0, 0.0, 0.0, 0.0, 0.0, 0.0, 0.0, 0.0, 0.0, 1.67761500323727E9, 0.0, 2023-02-28 12:10:03.237
108.0, 27639.362530632323, -4318.200566554137, 15323.283114824668, -3220.528748098463, 15077.36922232738, 7603.549373572991, -187500.02235174447, -187500.02235174447, -0.2, -0.79, -0.602, 192.0, 0.0, 0.0, 0.0, 0.0, 0.0, 0.0, 0.0, 0.0, 0.0, 1.6776150032411866E9, 0.0, 2023-02-28 12:10:03.241
109.0, 27675.840577583385, -4315.093674074849, 15807.980693338, -3218.4947393530297, 15338.571708032097, 7735.871700748408, -187500.02235174447, -187500.02235174447, -0.2, -0.79, -0.602, 192.0, 0.0, 0.0, 0.0, 0.0, 0.0, 0.0, 0.0, 0.0, 0.0, 1.6776150032462077E9, 0.0, 2023-02-28 12:10:03.246
110.0, 27548.63679988823, -4303.828394869375, 15161.992926835172, -3206.0448176914238, 15011.83390758442, 7408.664513667169, -187500.02235174447, -187500.02235174447, -0.2, -0.79, -0.602, 192.0, 0.0, 0.0, 0.0, 0.0, 0.0, 0.0, 0.0, 0.0, 0.0, 1.677615003250173E9, 0.0, 2023-02-28 12:10:03.250
111.0, 27471.478578028513, -4300.162708778705, 14607.51320213237, -3204.4578438350973, 14722.065892465818, 7243.418066909083, -187500.02235174447, -187500.02235174447, -0.2, -0.79, -0.602, 192.0, 0.0, 0.0, 0.0, 0.0, 0.0, 0.0, 0.0, 0.0, 0.0, 1.6776150032542472E9, 0.0, 2023-02-28 12:10:03.254
112.0, 27571.592041443833, -4302.7555111355205, 15162.99875533566, -3214.404370117709, 15006.380081937325, 7543.11025656584, -187500.02235174447, -187500.02235174447, -0.2, -0.79, -0.602, 192.0, 0.0, 0.0, 0.0, 0.0, 0.0, 0.0, 0.0, 0.0, 0.0, 1.67761500325818E9, 0.0, 2023-02-28 12:10:03.258
113.0, 27716.185476325212, -4306.778825137475, 15808.651245671661, -3219.031181219957, 15344.874899968494, 7750.646203833367, -187500.02235174447, -187500.02235174447, -0.2, -0.79, -0.602, 192.0, 0.0, 0.0, 0.0, 0.0, 0.0, 0.0, 0.0, 0.0, 0.0, 1.6776150032612455E9, 0.0, 2023-02-28 12:10:03.261
114.0, 27608.293605839444, -4307.896412360241, 15315.258838565212, -3210.068131693379, 15091.160248656304, 7469.394203352238, -187500.02235174447, -187500.02235174447, -0.21, -0.78, -0.608, 192.0, 249.0, 112.0, 231.0, 160.0, 237.0, 0.0, 0.0, 0.0, 0.0, 1.677615003265321E9, 0.0, 2023-02-28 12:10:03.265
115.0, 27492.198645138582, -4308.611668182811, 14625.551059907802, -3206.782425258449, 14721.954133743542, 7232.733933059447, -187500.02235174447, -187500.02235174447, -0.21, -0.78, -0.608, 192.0, 0.0, 0.0, 0.0, 0.0, 0.0, 0.0, 0.0, 0.0, 0.0, 1.6776150032692363E9, 0.0, 2023-02-28 12:10:03.269
116.0, 27569.69214316513, -4308.0975780603385, 15012.347997706891, -3213.689114295139, 14914.313246525913, 7477.485534845059, -187500.02235174447, -187500.02235174447, -0.21, -0.78, -0.608, 192.0, 0.0, 0.0, 0.0, 0.0, 0.0, 0.0, 0.0, 0.0, 0.0, 1.677615003274304E9, 0.0, 2023-02-28 12:10:03.274
117.0, 27652.751225561053, -4300.296819245436, 15768.328698674286, -3215.9913439740353, 15312.710739697308, 7759.609253359945, -187500.02235174447, -187500.02235174447, -0.21, -0.78, -0.608, 192.0, 0.0, 0.0, 0.0, 0.0, 0.0, 0.0, 0.0, 0.0, 0.0, 1.677615003278268E9, 0.0, 2023-02-28 12:10:03.278
118.0, 27642.022388222504, -4301.213240768104, 15460.612232758074, -3208.816434003882, 15162.261147768635, 7539.422218730715, -187500.02235174447, -187500.02235174447, -0.21, -0.78, -0.608, 192.0, 0.0, 0.0, 0.0, 0.0, 0.0, 0.0, 0.0, 0.0, 0.0, 1.6776150032822344E9, 0.0, 2023-02-28 12:10:03.282
119.0, 27525.770965310454, -4307.672894915688, 14680.469296034491, -3206.3800938582535, 14751.659602124644, 7233.359781904195, -187500.02235174447, -187500.02235174447, -0.21, -0.78, -0.608, 192.0, 0.0, 0.0, 0.0, 0.0, 0.0, 0.0, 0.0, 0.0, 0.0, 1.6776150032862413E9, 0.0, 2023-02-28 12:10:03.286
120.0, 27642.067091711415, -4314.333714763369, 14882.126734510271, -3217.332448641354, 14845.335763136836, 7401.064920552364, -187500.02235174447, -187500.02235174447, -0.21, -0.78, -0.608, 192.0, 0.0, 0.0, 0.0, 0.0, 0.0, 0.0, 0.0, 0.0, 0.0, 1.67761500329026E9, 0.0, 2023-02-28 12:10:03.290
121.0, 27708.38471751031, -4317.1947380536485, 15700.066471107779, -3223.9262132556696, 15270.801218843606, 7733.681229791789, -187500.02235174447, -187500.02235174447, -0.21, -0.78, -0.608, 192.0, 0.0, 0.0, 0.0, 0.0, 0.0, 0.0, 0.0, 0.0, 0.0, 1.6776150032932796E9, 0.0, 2023-02-28 12:10:03.293
122.0, 27587.55118698492, -4307.024694326484, 15599.058937914246, -3214.49377709553, 15225.360122365968, 7601.336550871915, -187500.02235174447, -187500.02235174447, -0.21, -0.78, -0.608, 192.0, 0.0, 0.0, 0.0, 0.0, 0.0, 0.0, 0.0, 0.0, 0.0, 1.6776150032972646E9, 0.0, 2023-02-28 12:10:03.297
123.0, 27497.96539520805, -4304.521298947489, 14778.660509426656, -3206.335390369343, 14791.132782832718, 7261.143000262142, -187500.02235174447, -187500.02235174447, -0.21, -0.78, -0.608, 192.0, 0.0, 0.0, 0.0, 0.0, 0.0, 0.0, 0.0, 0.0, 0.0, 1.677615003301264E9, 0.0, 2023-02-28 12:10:03.301
124.0, 27569.82625363186, -4309.5057379610225, 14773.184332035105, -3214.8514050068147, 14774.21251228005, 7347.107809437252, -187500.02235174447, -187500.02235174447, -0.212, -0.78, -0.612, 192.0, 249.0, 96.0, 231.0, 160.0, 236.0, 224.0, 0.0, 0.0, 0.0, 1.677615003306261E9, 0.0, 2023-02-28 12:10:03.306
125.0, 27664.932926289195, -4306.890583859752, 15593.448650055963, -3222.808626032904, 15196.10168887397, 7701.852345687431, -187500.02235174447, -187500.02235174447, -0.212, -0.78, -0.612, 192.0, 0.0, 0.0, 0.0, 0.0, 0.0, 0.0, 0.0, 0.0, 0.0, 1.67761500331129E9, 0.0, 2023-02-28 12:10:03.311
126.0, 27669.85031006936, -4307.851708871331, 15710.862363679691, -3217.5336143414515, 15260.407657671889, 7656.053621298507, -187500.02235174447, -187500.02235174447, -0.212, -0.78, -0.612, 192.0, 0.0, 0.0, 0.0, 0.0, 0.0, 0.0, 0.0, 0.0, 0.0, 1.677615003314292E9, 0.0, 2023-02-28 12:10:03.314
127.0, 27547.318046965367, -4305.571830936889, 14905.193734788149, -3208.5705648148737, 14838.004390955495, 7291.429613999083, -187500.02235174447, -187500.02235174447, -0.212, -0.78, -0.612, 192.0, 0.0, 0.0, 0.0, 0.0, 0.0, 0.0, 0.0, 0.0, 0.0, 1.6776150033183503E9, 0.0, 2023-02-28 12:10:03.318
128.0, 27554.962343569085, -4307.963467593607, 14688.895903694143, -3213.979686973058, 14716.299142396349, 7287.24983778594, -187500.02235174447, -187500.02235174447, -0.212, -0.78, -0.612, 192.0, 0.0, 0.0, 0.0, 0.0, 0.0, 0.0, 0.0, 0.0, 0.0, 1.6776150033223329E9, 0.0, 2023-02-28 12:10:03.322
129.0, 27637.149707931247, -4308.455205971623, 15458.555872268185, -3223.0768469663676, 15117.401196646833, 7640.966193791175, -187500.02235174447, -187500.02235174447, -0.212, -0.78, -0.612, 192.0, 0.0, 0.0, 0.0, 0.0, 0.0, 0.0, 0.0, 0.0, 0.0, 1.6776150033262777E9, 0.0, 2023-02-28 12:10:03.326
130.0, 27651.521879616008, -4299.894487845241, 15783.75140234845, -3218.003000975013, 15293.93527435485, 7697.627865985378, -187500.02235174447, -187500.02235174447, -0.212, -0.78, -0.612, 192.0, 0.0, 0.0, 0.0, 0.0, 0.0, 0.0, 0.0, 0.0, 0.0, 1.6776150033292823E9, 0.0, 2023-02-28 12:10:03.329
131.0, 27514.05865121587, -4295.535897676456, 15042.589907954922, -3206.4024456027087, 14909.552324956934, 7346.124332681219, -187500.02235174447, -187500.02235174447, -0.212, -0.78, -0.612, 192.0, 0.0, 0.0, 0.0, 0.0, 0.0, 0.0, 0.0, 0.0, 0.0, 1.6776150033332808E9, 0.0, 2023-02-28 12:10:03.333
132.0, 27472.57381350682, -4294.977104065073, 14631.8542518442, -3207.7659020144824, 14688.538275782857, 7246.167331477086, -187500.02235174447, -187500.02235174447, -0.212, -0.78, -0.612, 192.0, 0.0, 0.0, 0.0, 0.0, 0.0, 0.0, 0.0, 0.0, 0.0, 1.677615003337391E9, 0.0, 2023-02-28 12:10:03.337
133.0, 27621.302321112435, -4294.060682542406, 15302.764213414695, -3215.656067807206, 15034.655038673287, 7574.581512758913, -187500.02235174447, -187500.02235174447, -0.212, -0.78, -0.612, 192.0, 0.0, 0.0, 0.0, 0.0, 0.0, 0.0, 0.0, 0.0, 0.0, 1.6776150033413289E9, 0.0, 2023-02-28 12:10:03.341
134.0, 27746.136813895326, -4294.70888313161, 15817.793109153881, -3215.5443090849294, 15309.067405351092, 7717.744435995154, -187500.02235174447, -187500.02235174447, -0.212, -0.78, -0.612, 192.0, 0.0, 0.0, 0.0, 0.0, 0.0, 0.0, 0.0, 0.0, 0.0, 1.6776150033463E9, 0.0, 2023-02-28 12:10:03.346
135.0, 27628.343120615857, -4292.5407639194445, 15191.318415560534, -3203.6084775457953, 14995.58418936541, 7397.913324584166, -187500.02235174447, -187500.02235174447, -0.202, -0.772, -0.612, 192.0, 249.0, 176.0, 231.0, 224.0, 236.0, 224.0, 0.0, 0.0, 0.0, 1.6776150033504248E9, 0.0, 2023-02-28 12:10:03.350
136.0, 27464.840109925284, -4284.114156259794, 14608.675492844046, -3199.138128654734, 14686.19134261505, 7225.737837044935, -187500.02235174447, -187500.02235174447, -0.202, -0.772, -0.612, 192.0, 0.0, 0.0, 0.0, 0.0, 0.0, 0.0, 0.0, 0.0, 0.0, 1.6776150033544047E9, 0.0, 2023-02-28 12:10:03.354
137.0, 27563.4560064621, -4278.839144568342, 15140.445845180255, -3208.212936903589, 14956.893319713274, 7515.751721352544, -187500.02235174447, -187500.02235174447, -0.202, -0.772, -0.612, 192.0, 0.0, 0.0, 0.0, 0.0, 0.0, 0.0, 0.0, 0.0, 0.0, 1.677615003357376E9, 0.0, 2023-02-28 12:10:03.357
138.0, 27688.692830645185, -4282.057795769906, 15809.41120498314, -3212.3033061389096, 15308.441556506343, 7739.805607772542, -187500.02235174447, -187500.02235174447, -0.202, -0.772, -0.612, 192.0, 0.0, 0.0, 0.0, 0.0, 0.0, 0.0, 0.0, 0.0, 0.0, 1.677615003361396E9, 0.0, 2023-02-28 12:10:03.361
139.0, 27621.928169957184, -4288.048063283928, 15340.918641199905, -3203.1614426566894, 15071.714230980186, 7463.091011415841, -187500.02235174447, -187500.02235174447, -0.202, -0.772, -0.612, 192.0, 0.0, 0.0, 0.0, 0.0, 0.0, 0.0, 0.0, 0.0, 0.0, 1.677615003365316E9, 0.0, 2023-02-28 12:10:03.365
140.0, 27486.81187472485, -4286.03640628295, 14627.003923297398, -3198.691093765628, 14694.394432830148, 7212.639714794125, -187500.02235174447, -187500.02235174447, -0.202, -0.772, -0.612, 192.0, 0.0, 0.0, 0.0, 0.0, 0.0, 0.0, 0.0, 0.0, 0.0, 1.6776150033693683E9, 0.0, 2023-02-28 12:10:03.369
141.0, 27612.048698907936, -4288.3162842173915, 14985.816477038441, -3207.810605503393, 14872.89546405023, 7444.09202862883, -187500.02235174447, -187500.02235174447, -0.202, -0.772, -0.612, 192.0, 0.0, 0.0, 0.0, 0.0, 0.0, 0.0, 0.0, 0.0, 0.0, 1.6776150033743644E9, 0.0, 2023-02-28 12:10:03.374
142.0, 27732.904581177783, -4287.46691792809, 15759.49975961444, -3211.744512527527, 15283.519361438675, 7734.083561191984, -187500.02235174447, -187500.02235174447, -0.202, -0.772, -0.612, 192.0, 0.0, 0.0, 0.0, 0.0, 0.0, 0.0, 0.0, 0.0, 0.0, 1.677615003378326E9, 0.0, 2023-02-28 12:10:03.378
