%OpenBCI Raw EEG Data
%Number of channels = 8
%Sample Rate = 250 Hz
%Board = OpenBCI_GUI$BoardCytonSerial
Sample Index, EXG Channel 0, EXG Channel 1, EXG Channel 2, EXG Channel 3, EXG Channel 4, EXG Channel 5, EXG Channel 6, EXG Channel 7, Accel Channel 0, Accel Channel 1, Accel Channel 2, Other, Other, Other, Other, Other, Other, Other, Analog Channel 0, Analog Channel 1, Analog Channel 2, Timestamp, Other, Timestamp (Formatted)
63.0, 27526.86620078876, -4257.314414657881, 15138.14361550136, -3189.1245471387565, 14941.202395105649, 7563.673861464723, -187500.02235174447, -187500.02235174447, 0.0, 0.0, 0.0, 192.0, 0.0, 0.0, 0.0, 0.0, 0.0, 0.0, 0.0, 0.0, 0.0, 1.677615117699741E9, 0.0, 2023-02-28 12:11:57.699
64.0, 27607.51129478351, -4258.767278047476, 15723.1111196412, -3189.8621547057814, 15251.511663378677, 7741.481988606691, -187500.02235174447, -187500.02235174447, 0.0, 0.0, 0.0, 192.0, 0.0, 0.0, 0.0, 0.0, 0.0, 0.0, 0.0, 0.0, 0.0, 1.677615117699784E9, 0.0, 2023-02-28 12:11:57.699
65.0, 27498.524188819432, -4252.106458199794, 15162.395258235367, -3176.965198155069, 14966.146941917772, 7439.018182637476, -187500.02235174447, -187500.02235174447, 0.0, 0.0, 0.0, 192.0, 0.0, 0.0, 0.0, 0.0, 0.0, 0.0, 0.0, 0.0, 0.0, 1.6776151176998055E9, 0.0, 2023-02-28 12:11:57.699
66.0, 27402.970481272994, -4251.07827795485, 14520.833137134689, -3174.998244643002, 14623.025312784352, 7229.7611510468905, -187500.02235174447, -187500.02235174447, 0.0, 0.0, 0.0, 192.0, 0.0, 0.0, 0.0, 0.0, 0.0, 0.0, 0.0, 0.0, 0.0, 1.67761511769982E9, 0.0, 2023-02-28 12:11:57.699
0.0, 0.0, 0.0, 0.0, 0.0, 0.0, 0.0, 0.0, 0.0, -0.192, -0.766, -0.636, 192.0, 250.0, 0.0, 232.0, 16.0, 236.0, 32.0, 0.0, 0.0, 0.0, 1.6776151177918844E9, 0.0, 2023-02-28 12:11:57.791
1.0, 27283.88038681512, -4198.864602907253, 15723.20052661902, -3134.5415871788964, 15289.531980697153, 7654.734868375644, -187500.02235174447, -187500.02235174447, -0.192, -0.766, -0.636, 192.0, 0.0, 0.0, 0.0, 0.0, 0.0, 0.0, 0.0, 0.0, 0.0, 1.6776151178088355E9, 0.0, 2023-02-28 12:11:57.808
2.0, 27173.775693628275, -4191.265009792449, 14965.409334350747, -3126.6067178972626, 14903.070319064895, 7359.289510165395, -187500.02235174447, -187500.02235174447, -0.192, -0.766, -0.636, 192.0, 0.0, 0.0, 0.0, 0.0, 0.0, 0.0, 0.0, 0.0, 0.0, 1.6776151178117995E9, 0.0, 2023-02-28 12:11:57.811
3.0, 27206.342185299658, -4193.142556326694, 15056.447989517212, -3133.4239999561314, 14942.834072450885, 7484.839258770855, -187500.02235174447, -187500.02235174447, -0.192, -0.766, -0.636, 192.0, 0.0, 0.0, 0.0, 0.0, 0.0, 0.0, 0.0, 0.0, 0.0, 1.6776151178148713E9, 0.0, 2023-02-28 12:11:57.814
4.0, 27330.573180982257, -4193.768405171443, 15841.821234443336, -3140.3306889928213, 15344.852548224038, 7806.749082416187, -187500.02235174447, -187500.02235174447, -0.192, -0.766, -0.636, 192.0, 0.0, 0.0, 0.0, 0.0, 0.0, 0.0, 0.0, 0.0, 0.0, 1.6776151178187928E9, 0.0, 2023-02-28 12:11:57.818
5.0, 27305.4945237034, -4194.081329593817, 15838.42376928613, -3134.720401134539, 15348.808806992629, 7718.705561006733, -187500.02235174447, -187500.02235174447, -0.192, -0.766, -0.636, 192.0, 0.0, 0.0, 0.0, 0.0, 0.0, 0.0, 0.0, 0.0, 0.0, 1.6776151178218043E9, 0.0, 2023-02-28 12:11:57.821
6.0, 27182.649336177034, -4193.1649080711495, 15060.963041897183, -3127.7690086089383, 14951.39479057727, 7389.263199479962, -187500.02235174447, -187500.02235174447, -0.192, -0.766, -0.636, 192.0, 0.0, 0.0, 0.0, 0.0, 0.0, 0.0, 0.0, 0.0, 0.0, 1.677615117826828E9, 0.0, 2023-02-28 12:11:57.826
7.0, 27175.742647140345, -4198.439919762602, 14959.776694748009, -3132.8652063447485, 14892.363833470803, 7427.730551687545, -187500.02235174447, -187500.02235174447, -0.192, -0.766, -0.636, 192.0, 0.0, 0.0, 0.0, 0.0, 0.0, 0.0, 0.0, 0.0, 0.0, 1.677615117830884E9, 0.0, 2023-02-28 12:11:57.830
8.0, 27298.811352111265, -4202.418530275647, 15732.92353545708, -3141.805904126871, 15287.877951607461, 7766.91827379683, -187500.02235174447, -187500.02235174447, -0.192, -0.772, -0.628, 192.0, 250.0, 0.0, 231.0, 224.0, 236.0, 96.0, 0.0, 0.0, 0.0, 1.6776151178348453E9, 0.0, 2023-02-28 12:11:57.834
9.0, 27313.138820307115, -4202.217364575549, 15934.156290788209, -3138.877825603226, 15395.613359882042, 7767.566474386034, -187500.02235174447, -187500.02235174447, -0.192, -0.772, -0.628, 192.0, 0.0, 0.0, 0.0, 0.0, 0.0, 0.0, 0.0, 0.0, 0.0, 1.6776151178378203E9, 0.0, 2023-02-28 12:11:57.837
10.0, 27193.802856660233, -4199.579858729823, 15187.362156791945, -3130.04888654338, 15013.01855004055, 7433.720819201568, -187500.02235174447, -187500.02235174447, -0.192, -0.772, -0.628, 192.0, 0.0, 0.0, 0.0, 0.0, 0.0, 0.0, 0.0, 0.0, 0.0, 1.6776151178418136E9, 0.0, 2023-02-28 12:11:57.841
11.0, 27165.729065624368, -4198.26110580696, 14895.940112583652, -3131.8370260998045, 14858.925623765663, 7394.0017693044865, -187500.02235174447, -187500.02235174447, -0.192, -0.772, -0.628, 192.0, 0.0, 0.0, 0.0, 0.0, 0.0, 0.0, 0.0, 0.0, 0.0, 1.6776151178458478E9, 0.0, 2023-02-28 12:11:57.845
12.0, 27288.708363617465, -4200.496280252491, 15601.741147248882, -3141.068296559846, 15219.168689151848, 7722.14772965285, -187500.02235174447, -187500.02235174447, -0.192, -0.772, -0.628, 192.0, 0.0, 0.0, 0.0, 0.0, 0.0, 0.0, 0.0, 0.0, 0.0, 1.6776151178499303E9, 0.0, 2023-02-28 12:11:57.849
13.0, 27331.444899016013, -4202.932620398119, 15993.544875805961, -3140.777723881927, 15423.19541253989, 7805.855012637975, -187500.02235174447, -187500.02235174447, -0.192, -0.772, -0.628, 192.0, 0.0, 0.0, 0.0, 0.0, 0.0, 0.0, 0.0, 0.0, 0.0, 1.6776151178548312E9, 0.0, 2023-02-28 12:11:57.854
14.0, 27217.89803718305, -4197.747015684487, 15328.4687195383, -3129.780665609916, 15085.393498586835, 7482.157049436218, -187500.02235174447, -187500.02235174447, -0.192, -0.772, -0.628, 192.0, 0.0, 0.0, 0.0, 0.0, 0.0, 0.0, 0.0, 0.0, 0.0, 1.6776151178588347E9, 0.0, 2023-02-28 12:11:57.858
15.0, 27161.41517894449, -4193.209611560061, 14869.743868082032, -3127.8584155867597, 14848.286193404938, 7357.926053753621, -187500.02235174447, -187500.02235174447, -0.192, -0.772, -0.628, 192.0, 0.0, 0.0, 0.0, 0.0, 0.0, 0.0, 0.0, 0.0, 0.0, 1.6776151178629298E9, 0.0, 2023-02-28 12:11:57.862
16.0, 27263.227374938415, -4199.9151348966525, 15463.137979881523, -3138.6766599031284, 15149.386542962378, 7662.356813234904, -187500.02235174447, -187500.02235174447, -0.192, -0.772, -0.628, 192.0, 0.0, 0.0, 0.0, 0.0, 0.0, 0.0, 0.0, 0.0, 0.0, 1.6776151178659334E9, 0.0, 2023-02-28 12:11:57.865
17.0, 27341.570239254266, -4200.138652341206, 16012.186230681686, -3139.52602619243, 15438.327543536132, 7832.766512962165, -187500.02235174447, -187500.02235174447, -0.192, -0.772, -0.628, 192.0, 0.0, 0.0, 0.0, 0.0, 0.0, 0.0, 0.0, 0.0, 0.0, 1.6776151178699036E9, 0.0, 2023-02-28 12:11:57.869
18.0, 27242.619066550622, -4196.607076717267, 15473.956224197893, -3129.400685954176, 15169.301947272057, 7543.154960054751, -187500.02235174447, -187500.02235174447, -0.186, -0.774, -0.628, 192.0, 250.0, 48.0, 231.0, 208.0, 236.0, 96.0, 0.0, 0.0, 0.0, 1.6776151178739488E9, 0.0, 2023-02-28 12:11:57.873
19.0, 27159.694094621434, -4193.768405171443, 14875.220045473581, -3126.472607430531, 14856.109303964295, 7348.493617593482, -187500.02235174447, -187500.02235174447, -0.186, -0.774, -0.628, 192.0, 0.0, 0.0, 0.0, 0.0, 0.0, 0.0, 0.0, 0.0, 0.0, 1.6776151178778608E9, 0.0, 2023-02-28 12:11:57.877
20.0, 27248.20700266445, -4194.170736571638, 15314.431824020367, -3135.167436023645, 15078.59856827242, 7603.370559617349, -187500.02235174447, -187500.02235174447, -0.186, -0.774, -0.628, 192.0, 0.0, 0.0, 0.0, 0.0, 0.0, 0.0, 0.0, 0.0, 0.0, 1.6776151178829324E9, 0.0, 2023-02-28 12:11:57.882
21.0, 27337.54692525231, -4199.870431407742, 15991.913198460723, -3140.822427370838, 15429.275087031734, 7841.081361899539, -187500.02235174447, -187500.02235174447, -0.186, -0.774, -0.628, 192.0, 0.0, 0.0, 0.0, 0.0, 0.0, 0.0, 0.0, 0.0, 0.0, 1.6776151178868904E9, 0.0, 2023-02-28 12:11:57.886
22.0, 27251.425653866012, -4198.574030229334, 15618.817880012737, -3132.2393575, 15241.051046973593, 7610.0090277205745, -187500.02235174447, -187500.02235174447, -0.186, -0.774, -0.628, 192.0, 0.0, 0.0, 0.0, 0.0, 0.0, 0.0, 0.0, 0.0, 0.0, 1.6776151178899524E9, 0.0, 2023-02-28 12:11:57.889
23.0, 27147.937077037943, -4195.9812278725185, 14918.247153550048, -3127.6125463977514, 14879.690394364643, 7354.483885107504, -187500.02235174447, -187500.02235174447, -0.186, -0.774, -0.628, 192.0, 0.0, 0.0, 0.0, 0.0, 0.0, 0.0, 0.0, 0.0, 0.0, 1.677615117893882E9, 0.0, 2023-02-28 12:11:57.893
24.0, 27214.47822028139, -4196.9200011396415, 15176.633319453398, -3135.279194745922, 15012.415052940256, 7531.934384338187, -187500.02235174447, -187500.02235174447, -0.186, -0.774, -0.628, 192.0, 0.0, 0.0, 0.0, 0.0, 0.0, 0.0, 0.0, 0.0, 0.0, 1.6776151178979065E9, 0.0, 2023-02-28 12:11:57.897
25.0, 27335.423509529057, -4196.472966250535, 15932.68107565416, -3140.397744226187, 15405.850458842571, 7822.305896557081, -187500.02235174447, -187500.02235174447, -0.186, -0.774, -0.628, 192.0, 0.0, 0.0, 0.0, 0.0, 0.0, 0.0, 0.0, 0.0, 0.0, 1.677615117901928E9, 0.0, 2023-02-28 12:11:57.901
26.0, 27284.819160082243, -4196.942352884096, 15755.252928167933, -3134.2510145009774, 15317.404606032922, 7665.173133036272, -187500.02235174447, -187500.02235174447, -0.186, -0.774, -0.628, 192.0, 0.0, 0.0, 0.0, 0.0, 0.0, 0.0, 0.0, 0.0, 0.0, 1.6776151179059055E9, 0.0, 2023-02-28 12:11:57.905
27.0, 27172.65810640551, -4190.3485882697805, 14993.840753297896, -3126.2267382415225, 14922.985723374573, 7373.728737083524, -187500.02235174447, -187500.02235174447, -0.186, -0.774, -0.628, 192.0, 0.0, 0.0, 0.0, 0.0, 0.0, 0.0, 0.0, 0.0, 0.0, 1.6776151179109817E9, 0.0, 2023-02-28 12:11:57.910
28.0, 27204.062307365217, -4190.035663847407, 15057.610280228888, -3131.948784822081, 14949.00315392055, 7488.817869283899, -187500.02235174447, -187500.02235174447, -0.182, -0.772, -0.62, 192.0, 250.0, 80.0, 231.0, 224.0, 236.0, 160.0, 0.0, 0.0, 0.0, 1.6776151179149697E9, 0.0, 2023-02-28 12:11:57.914
29.0, 27333.858887417187, -4195.333027283315, 15845.621031000737, -3140.3083372483657, 15357.41422860792, 7810.951210373785, -187500.02235174447, -187500.02235174447, -0.182, -0.772, -0.62, 192.0, 0.0, 0.0, 0.0, 0.0, 0.0, 0.0, 0.0, 0.0, 0.0, 1.6776151179179275E9, 0.0, 2023-02-28 12:11:57.917
30.0, 27318.279721531835, -4194.617771460745, 15874.745354026003, -3135.212139512556, 15377.508446873242, 7730.127302423394, -187500.02235174447, -187500.02235174447, -0.182, -0.772, -0.62, 192.0, 0.0, 0.0, 0.0, 0.0, 0.0, 0.0, 0.0, 0.0, 0.0, 1.677615117921941E9, 0.0, 2023-02-28 12:11:57.921
31.0, 27191.90295838153, -4189.92390512513, 15099.519801082588, -3126.137331263701, 14979.11095370185, 7399.142670529208, -187500.02235174447, -187500.02235174447, -0.182, -0.772, -0.62, 192.0, 0.0, 0.0, 0.0, 0.0, 0.0, 0.0, 0.0, 0.0, 0.0, 1.6776151179259772E9, 0.0, 2023-02-28 12:11:57.925
32.0, 27181.978783843373, -4194.573067971834, 14968.091543685383, -3130.942956321592, 14903.450298720634, 7438.638202981735, -187500.02235174447, -187500.02235174447, -0.182, -0.772, -0.62, 192.0, 0.0, 0.0, 0.0, 0.0, 0.0, 0.0, 0.0, 0.0, 0.0, 1.6776151179299822E9, 0.0, 2023-02-28 12:11:57.929
33.0, 27317.475058731445, -4196.472966250535, 15733.817605235292, -3140.2189302705447, 15299.925541868872, 7771.768602343632, -187500.02235174447, -187500.02235174447, -0.182, -0.772, -0.62, 192.0, 0.0, 0.0, 0.0, 0.0, 0.0, 0.0, 0.0, 0.0, 0.0, 1.6776151179339657E9, 0.0, 2023-02-28 12:11:57.933
34.0, 27339.960913653485, -4193.880163893719, 15963.34766904684, -3137.3579069802654, 15425.117662563047, 7781.558666415056, -187500.02235174447, -187500.02235174447, -0.182, -0.772, -0.62, 192.0, 0.0, 0.0, 0.0, 0.0, 0.0, 0.0, 0.0, 0.0, 0.0, 1.677615117938976E9, 0.0, 2023-02-28 12:11:57.938
35.0, 27206.297481810747, -4195.2212685610375, 15225.91891597735, -3129.8700725877375, 15044.199233555704, 7447.467142041582, -187500.02235174447, -187500.02235174447, -0.182, -0.772, -0.62, 192.0, 0.0, 0.0, 0.0, 0.0, 0.0, 0.0, 0.0, 0.0, 0.0, 1.6776151179430456E9, 0.0, 2023-02-28 12:11:57.943
36.0, 27167.494853436336, -4200.049245363384, 14908.814717389909, -3133.558110422863, 14874.37067918428, 7390.671359380646, -187500.02235174447, -187500.02235174447, -0.182, -0.772, -0.62, 192.0, 0.0, 0.0, 0.0, 0.0, 0.0, 0.0, 0.0, 0.0, 0.0, 1.677615117946012E9, 0.0, 2023-02-28 12:11:57.946
37.0, 27287.479017672424, -4204.005504131974, 15599.304807103254, -3143.2140640275557, 15227.416482855855, 7716.9621249392185, -187500.02235174447, -187500.02235174447, -0.182, -0.772, -0.62, 192.0, 0.0, 0.0, 0.0, 0.0, 0.0, 0.0, 0.0, 0.0, 0.0, 1.6776151179501297E9, 0.0, 2023-02-28 12:11:57.950
38.0, 27312.6470819291, -4212.096835624795, 16015.673102816714, -3144.376354739232, 15442.127340093535, 7819.601335477989, -187500.02235174447, -187500.02235174447, -0.18, -0.774, -0.62, 192.0, 250.0, 96.0, 231.0, 208.0, 236.0, 160.0, 0.0, 0.0, 0.0, 1.6776151179539945E9, 0.0, 2023-02-28 12:11:57.953
39.0, 27224.53650528628, -4206.68771346661, 15371.071144470114, -3135.592119168296, 15098.782193515563, 7510.320247449905, -187500.02235174447, -187500.02235174447, -0.18, -0.774, -0.62, 192.0, 0.0, 0.0, 0.0, 0.0, 0.0, 0.0, 0.0, 0.0, 0.0, 1.677615117958014E9, 0.0, 2023-02-28 12:11:57.958
40.0, 27181.040010576253, -4200.11630059675, 14888.362871213303, -3134.0274970564246, 14858.143312709728, 7362.351699155772, -187500.02235174447, -187500.02235174447, -0.18, -0.774, -0.62, 192.0, 0.0, 0.0, 0.0, 0.0, 0.0, 0.0, 0.0, 0.0, 0.0, 1.6776151179619927E9, 0.0, 2023-02-28 12:11:57.961
41.0, 27280.39351468009, -4199.043416862895, 15460.209901357879, -3141.5376831934077, 15161.501188457154, 7665.106077802906, -187500.02235174447, -187500.02235174447, -0.18, -0.774, -0.62, 192.0, 0.0, 0.0, 0.0, 0.0, 0.0, 0.0, 0.0, 0.0, 0.0, 1.677615117966025E9, 0.0, 2023-02-28 12:11:57.966
42.0, 27351.69557949252, -4204.385483787713, 16036.84020481589, -3144.756334394972, 15459.67345949095, 7845.350545090502, -187500.02235174447, -187500.02235174447, -0.18, -0.774, -0.62, 192.0, 0.0, 0.0, 0.0, 0.0, 0.0, 0.0, 0.0, 0.0, 0.0, 1.6776151179710116E9, 0.0, 2023-02-28 12:11:57.971
43.0, 27250.419825365523, -4201.770329686443, 15521.051349765225, -3134.653345901173, 15195.542895262588, 7564.947910898675, -187500.02235174447, -187500.02235174447, -0.18, -0.774, -0.62, 192.0, 0.0, 0.0, 0.0, 0.0, 0.0, 0.0, 0.0, 0.0, 0.0, 1.6776151179740336E9, 0.0, 2023-02-28 12:11:57.974
44.0, 27157.973010298374, -4201.9714953865405, 14905.6184179328, -3133.1334272782124, 14873.65542336171, 7362.441106133593, -187500.02235174447, -187500.02235174447, -0.18, -0.774, -0.62, 192.0, 0.0, 0.0, 0.0, 0.0, 0.0, 0.0, 0.0, 0.0, 0.0, 1.6776151179779785E9, 0.0, 2023-02-28 12:11:57.977
45.0, 27241.032092694295, -4205.681884966121, 15323.707797969319, -3143.4152297276532, 15084.968815442184, 7602.856469494876, -187500.02235174447, -187500.02235174447, -0.18, -0.774, -0.62, 192.0, 0.0, 0.0, 0.0, 0.0, 0.0, 0.0, 0.0, 0.0, 0.0, 1.6776151179821568E9, 0.0, 2023-02-28 12:11:57.982
46.0, 27342.732529965942, -4207.693541967099, 16016.343655150373, -3148.042040829902, 15445.10012210609, 7846.021097424162, -187500.02235174447, -187500.02235174447, -0.18, -0.774, -0.62, 192.0, 0.0, 0.0, 0.0, 0.0, 0.0, 0.0, 0.0, 0.0, 0.0, 1.6776151179859896E9, 0.0, 2023-02-28 12:11:57.985
47.0, 27266.40132265107, -4202.820861675842, 15670.651575404594, -3136.687354646606, 15271.44941943281, 7625.543490117013, -187500.02235174447, -187500.02235174447, -0.18, -0.774, -0.62, 192.0, 0.0, 0.0, 0.0, 0.0, 0.0, 0.0, 0.0, 0.0, 0.0, 1.6776151179899962E9, 0.0, 2023-02-28 12:11:57.989
48.0, 27141.008036256797, -4211.649800735689, 14956.848616224363, -3133.9604418230588, 14890.642749147744, 7359.624786332225, -187500.02235174447, -187500.02235174447, -0.18, -0.778, -0.618, 192.0, 250.0, 96.0, 231.0, 176.0, 236.0, 176.0, 0.0, 0.0, 0.0, 1.6776151179950216E9, 0.0, 2023-02-28 12:11:57.995
49.0, 27241.121499672117, -4199.937486641108, 15181.81892416703, -3138.7437151364943, 15016.527773920034, 7534.437779717181, -187500.02235174447, -187500.02235174447, -0.18, -0.778, -0.618, 192.0, 0.0, 0.0, 0.0, 0.0, 0.0, 0.0, 0.0, 0.0, 0.0, 1.6776151179991012E9, 0.0, 2023-02-28 12:11:57.999
50.0, 27350.041550402828, -4201.815033175353, 15943.745189159536, -3144.689279161606, 15413.67356940193, 7830.173710605349, -187500.02235174447, -187500.02235174447, -0.18, -0.778, -0.618, 192.0, 0.0, 0.0, 0.0, 0.0, 0.0, 0.0, 0.0, 0.0, 0.0, 1.6776151180020444E9, 0.0, 2023-02-28 12:11:58.002
51.0, 27299.057221300274, -4201.502108752979, 15794.256722242442, -3137.201444769078, 15340.963344688815, 7683.479211745169, -187500.02235174447, -187500.02235174447, -0.18, -0.778, -0.618, 192.0, 0.0, 0.0, 0.0, 0.0, 0.0, 0.0, 0.0, 0.0, 0.0, 1.677615118006109E9, 0.0, 2023-02-28 12:11:58.006
52.0, 27165.170272012983, -4208.766425700954, 15023.814442612464, -3133.401648211676, 14937.737874715076, 7371.560617871359, -187500.02235174447, -187500.02235174447, -0.18, -0.778, -0.618, 192.0, 0.0, 0.0, 0.0, 0.0, 0.0, 0.0, 0.0, 0.0, 0.0, 1.6776151180100415E9, 0.0, 2023-02-28 12:11:58.010
53.0, 27200.933063141474, -4207.246507077993, 15054.324573793958, -3139.4813227035193, 14946.34329633037, 7465.884979472755, -187500.02235174447, -187500.02235174447, -0.18, -0.778, -0.618, 192.0, 0.0, 0.0, 0.0, 0.0, 0.0, 0.0, 0.0, 0.0, 0.0, 1.6776151180140686E9, 0.0, 2023-02-28 12:11:58.014
54.0, 27321.721890177952, -4212.49916702499, 15838.535528008406, -3148.4220204856424, 15350.328725615589, 7800.602352690978, -187500.02235174447, -187500.02235174447, -0.18, -0.778, -0.618, 192.0, 0.0, 0.0, 0.0, 0.0, 0.0, 0.0, 0.0, 0.0, 0.0, 1.677615118018041E9, 0.0, 2023-02-28 12:11:58.018
55.0, 27314.479924974436, -4211.538042013412, 15897.521781625961, -3143.14700879419, 15383.968101020826, 7739.358572883436, -187500.02235174447, -187500.02235174447, -0.18, -0.778, -0.618, 192.0, 0.0, 0.0, 0.0, 0.0, 0.0, 0.0, 0.0, 0.0, 0.0, 1.6776151180220478E9, 0.0, 2023-02-28 12:11:58.022
56.0, 27179.967126842395, -4205.0783878658285, 15119.010522247616, -3132.5522819223743, 14985.637663082798, 7407.345760744305, -187500.02235174447, -187500.02235174447, -0.18, -0.778, -0.618, 192.0, 0.0, 0.0, 0.0, 0.0, 0.0, 0.0, 0.0, 0.0, 0.0, 1.6776151180271232E9, 0.0, 2023-02-28 12:11:58.027
57.0, 27173.99921107283, -4203.446710520591, 14954.6804970122, -3135.882691846215, 14896.163630028204, 7419.750978917001, -187500.02235174447, -187500.02235174447, -0.18, -0.778, -0.618, 192.0, 0.0, 0.0, 0.0, 0.0, 0.0, 0.0, 0.0, 0.0, 0.0, 1.6776151180300367E9, 0.0, 2023-02-28 12:11:58.030
58.0, 27306.522703948343, -4205.011332632463, 15711.242343335432, -3145.2033692840782, 15290.336643497545, 7753.686041079288, -187500.02235174447, -187500.02235174447, -0.176, -0.778, -0.616, 192.0, 250.0, 128.0, 231.0, 176.0, 236.0, 192.0, 0.0, 0.0, 0.0, 1.677615118034132E9, 0.0, 2023-02-28 12:11:58.034
59.0, 27325.611093713178, -4204.676056465632, 15971.953090662133, -3141.135351793212, 15431.331447521621, 7783.838544349497, -187500.02235174447, -187500.02235174447, -0.176, -0.778, -0.616, 192.0, 0.0, 0.0, 0.0, 0.0, 0.0, 0.0, 0.0, 0.0, 0.0, 1.6776151180380654E9, 0.0, 2023-02-28 12:11:58.038
60.0, 27188.57254845769, -4206.978286144529, 15243.979125497239, -3132.373467966732, 15051.463550503679, 7450.574034520869, -187500.02235174447, -187500.02235174447, -0.176, -0.778, -0.616, 192.0, 0.0, 0.0, 0.0, 0.0, 0.0, 0.0, 0.0, 0.0, 0.0, 1.6776151180421784E9, 0.0, 2023-02-28 12:11:58.042
61.0, 27141.075091490162, -4207.537079755912, 14897.012996317506, -3134.586290667807, 14871.286138449448, 7375.382766173216, -187500.02235174447, -187500.02235174447, -0.176, -0.778, -0.616, 192.0, 0.0, 0.0, 0.0, 0.0, 0.0, 0.0, 0.0, 0.0, 0.0, 1.6776151180460725E9, 0.0, 2023-02-28 12:11:58.046
62.0, 27285.288546715805, -4206.374789044236, 15575.299033558254, -3144.62222392824, 15218.028750184627, 7700.064206131006, -187500.02235174447, -187500.02235174447, -0.176, -0.778, -0.616, 192.0, 0.0, 0.0, 0.0, 0.0, 0.0, 0.0, 0.0, 0.0, 0.0, 1.677615118050068E9, 0.0, 2023-02-28 12:11:58.050
63.0, 27341.88316367664, -4203.826690176331, 16016.50011736156, -3142.789380882905, 15452.2973838207, 7819.757797689176, -187500.02235174447, -187500.02235174447, -0.176, -0.778, -0.616, 192.0, 0.0, 0.0, 0.0, 0.0, 0.0, 0.0, 0.0, 0.0, 0.0, 1.6776151180551724E9, 0.0, 2023-02-28 12:11:58.055
64.0, 27222.033109907283, -4202.485585509013, 15381.420002152921, -3132.0605435443576, 15129.89582179735, 7505.134642736273, -187500.02235174447, -187500.02235174447, -0.176, -0.778, -0.616, 192.0, 0.0, 0.0, 0.0, 0.0, 0.0, 0.0, 0.0, 0.0, 0.0, 1.677615118058094E9, 0.0, 2023-02-28 12:11:58.058
65.0, 27153.033274773752, -4208.9005361676855, 14873.878940806264, -3133.71457263405, 14861.339612166836, 7352.069896706331, -187500.02235174447, -187500.02235174447, -0.176, -0.778, -0.616, 192.0, 0.0, 0.0, 0.0, 0.0, 0.0, 0.0, 0.0, 0.0, 0.0, 1.6776151180620725E9, 0.0, 2023-02-28 12:11:58.062
66.0, 27254.7337120454, -4211.336876313314, 15426.861098630561, -3144.421058228142, 15135.886089311372, 7643.491940914624, -187500.02235174447, -187500.02235174447, -0.176, -0.778, -0.616, 192.0, 0.0, 0.0, 0.0, 0.0, 0.0, 0.0, 0.0, 0.0, 0.0, 1.6776151180660892E9, 0.0, 2023-02-28 12:11:58.066
67.0, 27344.051282888806, -4207.671190222644, 16019.227030185108, -3144.9575000950695, 15452.118569865057, 7838.488559542723, -187500.02235174447, -187500.02235174447, -0.176, -0.778, -0.616, 192.0, 0.0, 0.0, 0.0, 0.0, 0.0, 0.0, 0.0, 0.0, 0.0, 1.6776151180701451E9, 0.0, 2023-02-28 12:11:58.070
68.0, 27246.977656719406, -4203.804338431876, 15523.68885561095, -3134.3180697343437, 15207.970465179738, 7561.684556208201, -187500.02235174447, -187500.02235174447, -0.17200000000000001, -0.778, -0.618, 192.0, 250.0, 160.0, 231.0, 176.0, 236.0, 176.0, 0.0, 0.0, 0.0, 1.677615118074152E9, 0.0, 2023-02-28 12:11:58.074
69.0, 27143.824356058165, -4204.676056465632, 14886.775897356976, -3130.741790621494, 14875.309452451404, 7342.235129145995, -187500.02235174447, -187500.02235174447, -0.17200000000000001, -0.778, -0.618, 192.0, 0.0, 0.0, 0.0, 0.0, 0.0, 0.0, 0.0, 0.0, 0.0, 1.6776151180781229E9, 0.0, 2023-02-28 12:11:58.078
70.0, 27235.62297053611, -4205.0783878658285, 15275.02569854566, -3139.436619214609, 15071.133085624348, 7577.151963371273, -187500.02235174447, -187500.02235174447, -0.17200000000000001, -0.778, -0.618, 192.0, 0.0, 0.0, 0.0, 0.0, 0.0, 0.0, 0.0, 0.0, 0.0, 1.6776151180830932E9, 0.0, 2023-02-28 12:11:58.083
71.0, 27347.113471879184, -4205.54777449939, 15983.64305301226, -3144.6445756726953, 15434.86302314556, 7833.235899595726, -187500.02235174447, -187500.02235174447, -0.17200000000000001, -0.778, -0.618, 192.0, 0.0, 0.0, 0.0, 0.0, 0.0, 0.0, 0.0, 0.0, 0.0, 1.677615118086155E9, 0.0, 2023-02-28 12:11:58.086
72.0, 27275.63259311111, -4200.809204674864, 15663.968403812458, -3134.943918579092, 15274.131628767447, 7623.375370904848, -187500.02235174447, -187500.02235174447, -0.17200000000000001, -0.778, -0.618, 192.0, 0.0, 0.0, 0.0, 0.0, 0.0, 0.0, 0.0, 0.0, 0.0, 1.6776151180901575E9, 0.0, 2023-02-28 12:11:58.090
73.0, 27154.776710841266, -4205.391312288202, 14935.390941547268, -3131.1664737661454, 14898.242342262549, 7349.722963538524, -187500.02235174447, -187500.02235174447, -0.17200000000000001, -0.778, -0.618, 192.0, 0.0, 0.0, 0.0, 0.0, 0.0, 0.0, 0.0, 0.0, 0.0, 1.6776151180941365E9, 0.0, 2023-02-28 12:11:58.094
74.0, 27219.239141850372, -4203.580820987323, 15135.439054422266, -3138.2519767584777, 14999.026358011528, 7510.052026516441, -187500.02235174447, -187500.02235174447, -0.17200000000000001, -0.778, -0.618, 192.0, 0.0, 0.0, 0.0, 0.0, 0.0, 0.0, 0.0, 0.0, 0.0, 1.6776151180981069E9, 0.0, 2023-02-28 12:11:58.098
75.0, 27345.99588465642, -4199.244582562993, 15906.462479408085, -3142.9905465830025, 15395.926284304416, 7822.216489579259, -187500.02235174447, -187500.02235174447, -0.17200000000000001, -0.778, -0.618, 192.0, 0.0, 0.0, 0.0, 0.0, 0.0, 0.0, 0.0, 0.0, 0.0, 1.6776151181021135E9, 0.0, 2023-02-28 12:11:58.102
76.0, 27301.82883761273, -4197.255277306471, 15788.400565195152, -3135.6368226572067, 15340.89628945545, 7688.597761225434, -187500.02235174447, -187500.02235174447, -0.17200000000000001, -0.778, -0.618, 192.0, 0.0, 0.0, 0.0, 0.0, 0.0, 0.0, 0.0, 0.0, 0.0, 1.67761511810615E9, 0.0, 2023-02-28 12:11:58.106
77.0, 27163.538594667745, -4202.440882020102, 15014.180840752226, -3130.8759010882263, 14935.837976436374, 7376.656815607169, -187500.02235174447, -187500.02235174447, -0.17200000000000001, -0.778, -0.618, 192.0, 0.0, 0.0, 0.0, 0.0, 0.0, 0.0, 0.0, 0.0, 0.0, 1.6776151181102233E9, 0.0, 2023-02-28 12:11:58.110
78.0, 27165.08086503516, -4214.30965832587, 15018.002989054083, -3140.554206437374, 14921.935191385173, 7460.878188714766, -187500.02235174447, -187500.02235174447, -0.17400000000000002, -0.776, -0.618, 192.0, 250.0, 144.0, 231.0, 192.0, 236.0, 176.0, 0.0, 0.0, 0.0, 1.677615118113158E9, 0.0, 2023-02-28 12:11:58.113
79.0, 27337.770442696863, -4200.429225019125, 15804.31500724733, -3144.62222392824, 15338.728170243285, 7800.043559079595, -187500.02235174447, -187500.02235174447, -0.17400000000000002, -0.776, -0.618, 192.0, 0.0, 0.0, 0.0, 0.0, 0.0, 0.0, 0.0, 0.0, 0.0, 1.6776151181181536E9, 0.0, 2023-02-28 12:11:58.118
80.0, 27320.26902678836, -4199.848079663287, 15892.537342612428, -3138.788418625405, 15385.599778366064, 7752.099067222962, -187500.02235174447, -187500.02235174447, -0.17400000000000002, -0.776, -0.618, 192.0, 0.0, 0.0, 0.0, 0.0, 0.0, 0.0, 0.0, 0.0, 0.0, 1.6776151181221757E9, 0.0, 2023-02-28 12:11:58.122
81.0, 27188.57254845769, -4198.395216273691, 15117.55765885802, -3129.400685954176, 14987.269340428036, 7413.067807324864, -187500.02235174447, -187500.02235174447, -0.17400000000000002, -0.776, -0.618, 192.0, 0.0, 0.0, 0.0, 0.0, 0.0, 0.0, 0.0, 0.0, 0.0, 1.6776151181261375E9, 0.0, 2023-02-28 12:11:58.126
82.0, 27180.861196620608, -4195.824765661331, 14924.349179786346, -3131.6135086552513, 14884.652481633722, 7416.398217248705, -187500.02235174447, -187500.02235174447, -0.17400000000000002, -0.776, -0.618, 192.0, 0.0, 0.0, 0.0, 0.0, 0.0, 0.0, 0.0, 0.0, 0.0, 1.677615118130175E9, 0.0, 2023-02-28 12:11:58.130
83.0, 27308.869637116153, -4198.797547673887, 15677.558264441284, -3142.789380882905, 15269.102486265003, 7755.205959702249, -187500.02235174447, -187500.02235174447, -0.17400000000000002, -0.776, -0.618, 192.0, 0.0, 0.0, 0.0, 0.0, 0.0, 0.0, 0.0, 0.0, 0.0, 1.677615118134141E9, 0.0, 2023-02-28 12:11:58.134
84.0, 27333.054224616793, -4199.1551755851715, 15967.795666193446, -3140.4424477150974, 15423.62009568454, 7792.309855498059, -187500.02235174447, -187500.02235174447, -0.17400000000000002, -0.776, -0.618, 192.0, 0.0, 0.0, 0.0, 0.0, 0.0, 0.0, 0.0, 0.0, 0.0, 1.677615118138191E9, 0.0, 2023-02-28 12:11:58.138
85.0, 27207.795048689255, -4199.892783152197, 15249.052971488592, -3132.462874944553, 15054.436332516234, 7452.920967688677, -187500.02235174447, -187500.02235174447, -0.17400000000000002, -0.776, -0.618, 192.0, 0.0, 0.0, 0.0, 0.0, 0.0, 0.0, 0.0, 0.0, 0.0, 1.67761511814122E9, 0.0, 2023-02-28 12:11:58.141
86.0, 27174.42389421748, -4196.6294284617225, 14874.504789651011, -3132.1946540110894, 14858.523292365468, 7377.08149875182, -187500.02235174447, -187500.02235174447, -0.17400000000000002, -0.776, -0.618, 192.0, 0.0, 0.0, 0.0, 0.0, 0.0, 0.0, 0.0, 0.0, 0.0, 1.6776151181473053E9, 0.0, 2023-02-28 12:11:58.147
87.0, 27292.35169796368, -4200.988018630507, 15538.016323806802, -3142.6329186717176, 15201.175534865324, 7701.2264968426825, -187500.02235174447, -187500.02235174447, -0.17400000000000002, -0.776, -0.618, 192.0, 0.0, 0.0, 0.0, 0.0, 0.0, 0.0, 0.0, 0.0, 0.0, 1.6776151181502774E9, 0.0, 2023-02-28 12:11:58.150
88.0, 27345.660608489587, -4204.363132043259, 16008.83346901339, -3143.7952093833937, 15445.077770361635, 7821.568288990055, -187500.02235174447, -187500.02235174447, -0.176, -0.778, -0.616, 192.0, 250.0, 128.0, 231.0, 176.0, 236.0, 192.0, 0.0, 0.0, 0.0, 1.6776151181542273E9, 0.0, 2023-02-28 12:11:58.154
89.0, 27236.137060658584, -4200.496280252491, 15392.439412169388, -3133.2004825115782, 15132.37686543189, 7505.91695379221, -187500.02235174447, -187500.02235174447, -0.176, -0.778, -0.616, 192.0, 0.0, 0.0, 0.0, 0.0, 0.0, 0.0, 0.0, 0.0, 0.0, 1.6776151181582282E9, 0.0, 2023-02-28 12:11:58.158
90.0, 27155.871946319574, -4206.821823933342, 14864.714725579588, -3135.4356569571087, 14850.789588783931, 7347.621899559725, -187500.02235174447, -187500.02235174447, -0.176, -0.778, -0.616, 192.0, 0.0, 0.0, 0.0, 0.0, 0.0, 0.0, 0.0, 0.0, 0.0, 1.6776151181621912E9, 0.0, 2023-02-28 12:11:58.162
91.0, 27242.931990972997, -4212.722684469543, 15397.3344442051, -3146.745639651494, 15114.406062889822, 7637.792246078521, -187500.02235174447, -187500.02235174447, -0.176, -0.778, -0.616, 192.0, 0.0, 0.0, 0.0, 0.0, 0.0, 0.0, 0.0, 0.0, 0.0, 1.6776151181662407E9, 0.0, 2023-02-28 12:11:58.166
92.0, 27367.31944886678, -4202.060902364362, 16011.962713237133, -3145.9633285955583, 15441.568546482153, 7838.108579886983, -187500.02235174447, -187500.02235174447, -0.176, -0.778, -0.616, 192.0, 0.0, 0.0, 0.0, 0.0, 0.0, 0.0, 0.0, 0.0, 0.0, 1.677615118169213E9, 0.0, 2023-02-28 12:11:58.169
93.0, 27264.81434879474, -4204.206669832071, 15539.960925574414, -3136.821465113338, 15203.433061055312, 7573.083945880408, -187500.02235174447, -187500.02235174447, -0.176, -0.778, -0.616, 192.0, 0.0, 0.0, 0.0, 0.0, 0.0, 0.0, 0.0, 0.0, 0.0, 1.6776151181732416E9, 0.0, 2023-02-28 12:11:58.173
94.0, 27150.216954972384, -4205.614829732755, 14884.51837116699, -3133.0887237893016, 14858.880920276753, 7357.210797931051, -187500.02235174447, -187500.02235174447, -0.176, -0.778, -0.616, 192.0, 0.0, 0.0, 0.0, 0.0, 0.0, 0.0, 0.0, 0.0, 0.0, 1.6776151181782503E9, 0.0, 2023-02-28 12:11:58.178
95.0, 27237.34405485917, -4207.693541967099, 15246.594279598508, -3142.3199942493434, 15040.667657931765, 7578.090736638396, -187500.02235174447, -187500.02235174447, -0.176, -0.778, -0.616, 192.0, 0.0, 0.0, 0.0, 0.0, 0.0, 0.0, 0.0, 0.0, 0.0, 1.677615118182216E9, 0.0, 2023-02-28 12:11:58.182
96.0, 27353.61782951568, -4204.944277399097, 15966.611023737316, -3145.1810175396226, 15422.994246839793, 7835.918108930363, -187500.02235174447, -187500.02235174447, -0.176, -0.778, -0.616, 192.0, 0.0, 0.0, 0.0, 0.0, 0.0, 0.0, 0.0, 0.0, 0.0, 1.6776151181862156E9, 0.0, 2023-02-28 12:11:58.186
97.0, 27279.521796646335, -4205.681884966121, 15678.944072597513, -3136.2403197575, 15279.607806158998, 7637.121693744862, -187500.02235174447, -187500.02235174447, -0.176, -0.778, -0.616, 192.0, 0.0, 0.0, 0.0, 0.0, 0.0, 0.0, 0.0, 0.0, 0.0, 1.6776151181902628E9, 0.0, 2023-02-28 12:11:58.190
98.0, 27164.253850490317, -4205.503071010479, 14939.816586949419, -3130.719438877039, 14897.683548651166, 7360.049469476876, -187500.02235174447, -187500.02235174447, -0.182, -0.778, -0.62, 192.0, 250.0, 80.0, 231.0, 176.0, 236.0, 160.0, 0.0, 0.0, 0.0, 1.6776151181942544E9, 0.0, 2023-02-28 12:11:58.194
99.0, 27208.331490556182, -4209.056998378873, 15110.852135521429, -3139.5707296813407, 14978.82038102393, 7514.790596340967, -187500.02235174447, -187500.02235174447, -0.182, -0.778, -0.62, 192.0, 0.0, 0.0, 0.0, 0.0, 0.0, 0.0, 0.0, 0.0, 0.0, 1.6776151181972864E9, 0.0, 2023-02-28 12:11:58.197
100.0, 27330.103794348695, -4211.985076902518, 15892.447935634607, -3147.9302821076253, 15384.705708587851, 7817.83554766602, -187500.02235174447, -187500.02235174447, -0.182, -0.778, -0.62, 192.0, 0.0, 0.0, 0.0, 0.0, 0.0, 0.0, 0.0, 0.0, 0.0, 1.677615118201247E9, 0.0, 2023-02-28 12:11:58.201
101.0, 27305.24865451439, -4206.732416955521, 15809.008873582945, -3139.7271918925276, 15344.89725171295, 7699.57246775299, -187500.02235174447, -187500.02235174447, -0.182, -0.778, -0.62, 192.0, 0.0, 0.0, 0.0, 0.0, 0.0, 0.0, 0.0, 0.0, 0.0, 1.6776151182063227E9, 0.0, 2023-02-28 12:11:58.206
102.0, 27179.967126842395, -4204.944277399097, 15027.413073469768, -3131.5017499329747, 14941.247098594558, 7379.830763319822, -187500.02235174447, -187500.02235174447, -0.182, -0.778, -0.62, 192.0, 0.0, 0.0, 0.0, 0.0, 0.0, 0.0, 0.0, 0.0, 0.0, 1.6776151182103093E9, 0.0, 2023-02-28 12:11:58.210
103.0, 27186.627946690078, -4209.995771645996, 15000.009834767561, -3139.0119360699578, 14916.347255271347, 7448.9423571756315, -187500.02235174447, -187500.02235174447, -0.182, -0.778, -0.62, 192.0, 0.0, 0.0, 0.0, 0.0, 0.0, 0.0, 0.0, 0.0, 0.0, 1.6776151182142425E9, 0.0, 2023-02-28 12:11:58.214
104.0, 27295.123314276138, -4219.0482281503955, 15790.233408240487, -3150.008994341969, 15319.751539200728, 7784.844372849986, -187500.02235174447, -187500.02235174447, -0.182, -0.778, -0.62, 192.0, 0.0, 0.0, 0.0, 0.0, 0.0, 0.0, 0.0, 0.0, 0.0, 1.6776151182182343E9, 0.0, 2023-02-28 12:11:58.218
105.0, 27326.393404769115, -4207.827652433831, 15908.094156753321, -3141.135351793212, 15392.774688336218, 7755.898863780363, -187500.02235174447, -187500.02235174447, -0.182, -0.778, -0.62, 192.0, 0.0, 0.0, 0.0, 0.0, 0.0, 0.0, 0.0, 0.0, 0.0, 1.6776151182222693E9, 0.0, 2023-02-28 12:11:58.222
106.0, 27185.62211818959, -4208.967591401051, 15136.310772456023, -3133.33459297831, 14993.840753297896, 7420.779159161945, -187500.02235174447, -187500.02235174447, -0.182, -0.778, -0.62, 192.0, 0.0, 0.0, 0.0, 0.0, 0.0, 0.0, 0.0, 0.0, 0.0, 1.677615118225326E9, 0.0, 2023-02-28 12:11:58.225
107.0, 27160.23053648836, -4211.091007124306, 14915.341426770858, -3137.6484796581844, 14872.18020822766, 7405.870545610255, -187500.02235174447, -187500.02235174447, -0.182, -0.778, -0.62, 192.0, 0.0, 0.0, 0.0, 0.0, 0.0, 0.0, 0.0, 0.0, 0.0, 1.677615118229294E9, 0.0, 2023-02-28 12:11:58.229
108.0, 27272.704514587465, -4219.830539206331, 15658.268708976355, -3149.584311197318, 15251.623422100953, 7734.307078636537, -187500.02235174447, -187500.02235174447, -0.178, -0.78, -0.628, 192.0, 250.0, 112.0, 231.0, 160.0, 236.0, 96.0, 0.0, 0.0, 0.0, 1.6776151182342727E9, 0.0, 2023-02-28 12:11:58.234
109.0, 27302.87936960213, -4221.037533406918, 15976.915177931212, -3147.326785007332, 15424.67062767394, 7785.470221694734, -187500.02235174447, -187500.02235174447, -0.178, -0.78, -0.628, 192.0, 0.0, 0.0, 0.0, 0.0, 0.0, 0.0, 0.0, 0.0, 0.0, 1.6776151182382565E9, 0.0, 2023-02-28 12:11:58.238
110.0, 27188.23727229086, -4215.851928693286, 15268.275471720157, -3135.234491257011, 15065.12046636587, 7450.015240909486, -187500.02235174447, -187500.02235174447, -0.178, -0.78, -0.628, 192.0, 0.0, 0.0, 0.0, 0.0, 0.0, 0.0, 0.0, 0.0, 0.0, 1.6776151182423599E9, 0.0, 2023-02-28 12:11:58.242
111.0, 27146.99830377082, -4213.16971935865, 14865.541740124434, -3135.5474156793853, 14854.611737085788, 7353.478056607015, -187500.02235174447, -187500.02235174447, -0.178, -0.78, -0.628, 192.0, 0.0, 0.0, 0.0, 0.0, 0.0, 0.0, 0.0, 0.0, 0.0, 1.6776151182463188E9, 0.0, 2023-02-28 12:11:58.246
112.0, 27261.05925572625, -4212.834443191819, 15510.747195571328, -3144.1975407835894, 15180.522522988622, 7687.457822258213, -187500.02235174447, -187500.02235174447, -0.178, -0.78, -0.628, 192.0, 0.0, 0.0, 0.0, 0.0, 0.0, 0.0, 0.0, 0.0, 0.0, 1.6776151182502763E9, 0.0, 2023-02-28 12:11:58.250
113.0, 27317.65387268709, -4217.5953647608, 16006.620646312314, -3146.1644942956564, 15436.852328402083, 7820.07072211155, -187500.02235174447, -187500.02235174447, -0.178, -0.78, -0.628, 192.0, 0.0, 0.0, 0.0, 0.0, 0.0, 0.0, 0.0, 0.0, 0.0, 1.6776151182533348E9, 0.0, 2023-02-28 12:11:58.253
114.0, 27210.365499301613, -4210.040475134906, 15405.068147786636, -3133.044020300391, 15132.421568920801, 7514.388264940771, -187500.02235174447, -187500.02235174447, -0.178, -0.78, -0.628, 192.0, 0.0, 0.0, 0.0, 0.0, 0.0, 0.0, 0.0, 0.0, 0.0, 1.6776151182573152E9, 0.0, 2023-02-28 12:11:58.257
115.0, 27138.906972277997, -4205.413664032658, 14848.08502770484, -3128.8865958317037, 14849.426132372158, 7349.745315282979, -187500.02235174447, -187500.02235174447, -0.178, -0.78, -0.628, 192.0, 0.0, 0.0, 0.0, 0.0, 0.0, 0.0, 0.0, 0.0, 0.0, 1.6776151182623112E9, 0.0, 2023-02-28 12:11:58.262
116.0, 27237.72403451491, -4211.225117591038, 15354.03911519517, -3140.3083372483657, 15108.192277931248, 7618.279173169038, -187500.02235174447, -187500.02235174447, -0.178, -0.78, -0.628, 192.0, 0.0, 0.0, 0.0, 0.0, 0.0, 0.0, 0.0, 0.0, 0.0, 1.6776151182663035E9, 0.0, 2023-02-28 12:11:58.266
117.0, 27329.343835037213, -4210.532213512924, 15988.560436792426, -3143.3258227498322, 15433.544270222697, 7828.78790244912, -187500.02235174447, -187500.02235174447, -0.178, -0.78, -0.628, 192.0, 0.0, 0.0, 0.0, 0.0, 0.0, 0.0, 0.0, 0.0, 0.0, 1.6776151182703164E9, 0.0, 2023-02-28 12:11:58.270
118.0, 27232.33726410118, -4206.620658233244, 15541.07851279718, -3133.1334272782124, 15202.717805232742, 7579.878876194821, -187500.02235174447, -187500.02235174447, -0.178, -0.772, -0.62, 192.0, 250.0, 112.0, 231.0, 224.0, 236.0, 160.0, 0.0, 0.0, 0.0, 1.6776151182744272E9, 0.0, 2023-02-28 12:11:58.274
119.0, 27125.138297693527, -4209.302867567882, 14872.694298350132, -3130.8982528326815, 14852.801245784909, 7349.097114693775, -187500.02235174447, -187500.02235174447, -0.178, -0.772, -0.62, 192.0, 0.0, 0.0, 0.0, 0.0, 0.0, 0.0, 0.0, 0.0, 0.0, 1.6776151182773757E9, 0.0, 2023-02-28 12:11:58.277
120.0, 27182.358763499113, -4216.097797882295, 15206.763470979151, -3140.554206437374, 15021.4451577002, 7559.4717335071255, -187500.02235174447, -187500.02235174447, -0.178, -0.772, -0.62, 192.0, 0.0, 0.0, 0.0, 0.0, 0.0, 0.0, 0.0, 0.0, 0.0, 1.6776151182815893E9, 0.0, 2023-02-28 12:11:58.281
121.0, 27314.435221485524, -4214.957858915074, 15940.571241446882, -3145.5386454509076, 15405.04579604218, 7828.45262628229, -187500.02235174447, -187500.02235174447, -0.178, -0.772, -0.62, 192.0, 0.0, 0.0, 0.0, 0.0, 0.0, 0.0, 0.0, 0.0, 0.0, 1.6776151182853863E9, 0.0, 2023-02-28 12:11:58.285
122.0, 27267.027171495818, -4207.648838478189, 15675.859531862681, -3135.256843001466, 15278.132591024947, 7639.647440868312, -187500.02235174447, -187500.02235174447, -0.178, -0.772, -0.62, 192.0, 0.0, 0.0, 0.0, 0.0, 0.0, 0.0, 0.0, 0.0, 0.0, 1.6776151182903807E9, 0.0, 2023-02-28 12:11:58.290
123.0, 27148.67468460497, -4206.084216366317, 14923.902144897242, -3129.5571481653633, 14892.050909048428, 7350.5052745944595, -187500.02235174447, -187500.02235174447, -0.178, -0.772, -0.62, 192.0, 0.0, 0.0, 0.0, 0.0, 0.0, 0.0, 0.0, 0.0, 0.0, 1.6776151182944255E9, 0.0, 2023-02-28 12:11:58.294
124.0, 27188.013754846306, -4208.677018723133, 15064.338155309935, -3137.246148257989, 14957.094485413372, 7495.232819942573, -187500.02235174447, -187500.02235174447, -0.178, -0.772, -0.62, 192.0, 0.0, 0.0, 0.0, 0.0, 0.0, 0.0, 0.0, 0.0, 0.0, 1.6776151182983432E9, 0.0, 2023-02-28 12:11:58.298
125.0, 27304.287529502813, -4217.148329871694, 15852.840644459802, -3146.7009361625837, 15359.872920498005, 7806.570268460545, -187500.02235174447, -187500.02235174447, -0.178, -0.772, -0.62, 192.0, 0.0, 0.0, 0.0, 0.0, 0.0, 0.0, 0.0, 0.0, 0.0, 1.6776151183013496E9, 0.0, 2023-02-28 12:11:58.301
126.0, 27269.999953508373, -4219.74113222851, 15798.682367644593, -3141.6047384267736, 15331.866184695506, 7691.749357193632, -187500.02235174447, -187500.02235174447, -0.178, -0.772, -0.62, 192.0, 0.0, 0.0, 0.0, 0.0, 0.0, 0.0, 0.0, 0.0, 0.0, 1.6776151183053863E9, 0.0, 2023-02-28 12:11:58.305
127.0, 27151.289838706238, -4213.348533314292, 15012.01272154006, -3132.7757993669275, 14930.71942695611, 7370.241864948495, -187500.02235174447, -187500.02235174447, -0.178, -0.772, -0.62, 192.0, 0.0, 0.0, 0.0, 0.0, 0.0, 0.0, 0.0, 0.0, 0.0, 1.6776151183094184E9, 0.0, 2023-02-28 12:11:58.309
128.0, 27165.08086503516, -4213.2367745920155, 14950.456017310145, -3138.4084389696645, 14893.190848015649, 7432.022086622965, -187500.02235174447, -187500.02235174447, -0.178, -0.772, -0.62, 192.0, 0.0, 0.0, 0.0, 0.0, 0.0, 0.0, 0.0, 0.0, 0.0, 1.677615118313374E9, 0.0, 2023-02-28 12:11:58.313
129.0, 27289.73654386241, -4216.209556604571, 15730.666009267094, -3147.997337340991, 15291.54363769813, 7771.2545122211595, -187500.02235174447, -187500.02235174447, -0.18, -0.776, -0.62, 192.0, 250.0, 96.0, 231.0, 192.0, 236.0, 160.0, 0.0, 0.0, 0.0, 1.677615118317381E9, 0.0, 2023-02-28 12:11:58.317
130.0, 27302.097058546195, -4213.1250158697385, 15886.301205909396, -3143.035250071913, 15379.251882940756, 7748.366325898925, -187500.02235174447, -187500.02235174447, -0.18, -0.776, -0.62, 192.0, 0.0, 0.0, 0.0, 0.0, 0.0, 0.0, 0.0, 0.0, 0.0, 1.6776151183224154E9, 0.0, 2023-02-28 12:11:58.322
131.0, 27173.932155839462, -4210.867489679753, 15130.789891575563, -3132.596985411285, 14991.829096296919, 7414.006580591987, -187500.02235174447, -187500.02235174447, -0.18, -0.776, -0.62, 192.0, 0.0, 0.0, 0.0, 0.0, 0.0, 0.0, 0.0, 0.0, 0.0, 1.6776151183264356E9, 0.0, 2023-02-28 12:11:58.326
132.0, 27153.592068385133, -4212.677980980633, 14891.022728803484, -3136.039154057402, 14863.485379634545, 7394.046472793398, -187500.02235174447, -187500.02235174447, -0.18, -0.776, -0.62, 192.0, 0.0, 0.0, 0.0, 0.0, 0.0, 0.0, 0.0, 0.0, 0.0, 1.6776151183293881E9, 0.0, 2023-02-28 12:11:58.329
133.0, 27284.796808337785, -4212.610925747267, 15622.885897503604, -3144.9351483506143, 15239.799349284096, 7734.2176716587155, -187500.02235174447, -187500.02235174447, -0.18, -0.776, -0.62, 192.0, 0.0, 0.0, 0.0, 0.0, 0.0, 0.0, 0.0, 0.0, 0.0, 1.677615118333424E9, 0.0, 2023-02-28 12:11:58.333
134.0, 27324.18058206804, -4207.090044866806, 15967.974480149089, -3141.761200637961, 15424.357703251566, 7800.557649202067, -187500.02235174447, -187500.02235174447, -0.18, -0.776, -0.62, 192.0, 0.0, 0.0, 0.0, 0.0, 0.0, 0.0, 0.0, 0.0, 0.0, 1.6776151183374083E9, 0.0, 2023-02-28 12:11:58.337
135.0, 27196.172141572493, -4206.6430099777, 15271.181198499347, -3132.95461332257, 15066.126294866359, 7468.008395196009, -187500.02235174447, -187500.02235174447, -0.18, -0.776, -0.62, 192.0, 0.0, 0.0, 0.0, 0.0, 0.0, 0.0, 0.0, 0.0, 0.0, 1.67761511834145E9, 0.0, 2023-02-28 12:11:58.341
136.0, 27149.412292171994, -4204.631352976722, 14845.112245692284, -3133.1334272782124, 14841.044228201417, 7364.7880393014, -187500.02235174447, -187500.02235174447, -0.18, -0.776, -0.62, 192.0, 0.0, 0.0, 0.0, 0.0, 0.0, 0.0, 0.0, 0.0, 0.0, 1.6776151183454566E9, 0.0, 2023-02-28 12:11:58.345
137.0, 27268.6364970966, -4203.759634942965, 15470.82697997415, -3140.911834348659, 15162.819941380018, 7678.360662264903, -187500.02235174447, -187500.02235174447, -0.18, -0.776, -0.62, 192.0, 0.0, 0.0, 0.0, 0.0, 0.0, 0.0, 0.0, 0.0, 0.0, 1.6776151183504229E9, 0.0, 2023-02-28 12:11:58.350
138.0, 27337.770442696863, -4205.123091354739, 15987.599311780848, -3142.2305872715224, 15432.67255218894, 7827.491501270712, -187500.02235174447, -187500.02235174447, -0.18, -0.776, -0.62, 192.0, 0.0, 0.0, 0.0, 0.0, 0.0, 0.0, 0.0, 0.0, 0.0, 1.6776151183545291E9, 0.0, 2023-02-28 12:11:58.354
139.0, 27229.409185577537, -4204.921925654641, 15412.891258345993, -3133.33459297831, 15138.255374223636, 7529.25217500355, -187500.02235174447, -187500.02235174447, -0.184, -0.774, -0.616, 192.0, 250.0, 64.0, 231.0, 208.0, 236.0, 192.0, 0.0, 0.0, 0.0, 1.677615118357466E9, 0.0, 2023-02-28 12:11:58.357
140.0, 27150.194603227927, -4204.11726285425, 14841.245393901516, -3131.7923226108937, 14840.016047956473, 7349.11946643823, -187500.02235174447, -187500.02235174447, -0.184, -0.774, -0.616, 192.0, 0.0, 0.0, 0.0, 0.0, 0.0, 0.0, 0.0, 0.0, 0.0, 1.6776151183614917E9, 0.0, 2023-02-28 12:11:58.361
141.0, 27239.601581049155, -4210.196937346093, 15325.585344503565, -3142.5882151828073, 15084.320614852979, 7614.546431845001, -187500.02235174447, -187500.02235174447, -0.184, -0.774, -0.616, 192.0, 0.0, 0.0, 0.0, 0.0, 0.0, 0.0, 0.0, 0.0, 0.0, 1.6776151183654952E9, 0.0, 2023-02-28 12:11:58.365
142.0, 27333.63536997263, -4211.1804141021275, 15978.122172131798, -3146.0974390622905, 15425.296476518688, 7839.181463620837, -187500.02235174447, -187500.02235174447, -0.184, -0.774, -0.616, 192.0, 0.0, 0.0, 0.0, 0.0, 0.0, 0.0, 0.0, 0.0, 0.0, 1.6776151183694937E9, 0.0, 2023-02-28 12:11:58.369
143.0, 27253.616124822634, -4208.006466389474, 15561.686821184972, -3137.0673343023464, 15217.894639717895, 7592.887591467809, -187500.02235174447, -187500.02235174447, -0.184, -0.774, -0.616, 192.0, 0.0, 0.0, 0.0, 0.0, 0.0, 0.0, 0.0, 0.0, 0.0, 1.6776151183735213E9, 0.0, 2023-02-28 12:11:58.373
144.0, 27153.480309662857, -4205.748940199487, 14879.712746109099, -3133.2228342560334, 14866.07818199136, 7347.376030370717, -187500.02235174447, -187500.02235174447, -0.184, -0.774, -0.616, 192.0, 0.0, 0.0, 0.0, 0.0, 0.0, 0.0, 0.0, 0.0, 0.0, 1.6776151183784957E9, 0.0, 2023-02-28 12:11:58.378
145.0, 27222.01075816283, -4204.765463443454, 15188.502095759166, -3140.3083372483657, 15022.808614111975, 7551.179236314206, -187500.02235174447, -187500.02235174447, -0.184, -0.774, -0.616, 192.0, 0.0, 0.0, 0.0, 0.0, 0.0, 0.0, 0.0, 0.0, 0.0, 1.6776151183825765E9, 0.0, 2023-02-28 12:11:58.382
146.0, 27346.64408524562, -4200.272762807937, 15931.33997098684, -3143.437581472109, 15409.67260714443, 7829.592565249511, -187500.02235174447, -187500.02235174447, -0.184, -0.774, -0.616, 192.0, 0.0, 0.0, 0.0, 0.0, 0.0, 0.0, 0.0, 0.0, 0.0, 1.6776151183855655E9, 0.0, 2023-02-28 12:11:58.385
147.0, 27289.960061306963, -4198.708140696066, 15704.49211650993, -3135.6368226572067, 15296.461021478299, 7650.353926462403, -187500.02235174447, -187500.02235174447, -0.184, -0.774, -0.616, 192.0, 0.0, 0.0, 0.0, 0.0, 0.0, 0.0, 0.0, 0.0, 0.0, 1.677615118389515E9, 0.0, 2023-02-28 12:11:58.389
148.0, 27155.491966663834, -4205.279553565926, 14951.90888069974, -3131.948784822081, 14901.304531252925, 7356.830818275312, -187500.02235174447, -187500.02235174447, -0.184, -0.774, -0.616, 192.0, 0.0, 0.0, 0.0, 0.0, 0.0, 0.0, 0.0, 0.0, 0.0, 1.6776151183935404E9, 0.0, 2023-02-28 12:11:58.393
149.0, 27188.594900202144, -4210.040475134906, 15065.612204743888, -3139.6377849147066, 14951.439494066179, 7488.929628006176, -187500.02235174447, -187500.02235174447, -0.186, -0.78, -0.618, 192.0, 250.0, 48.0, 231.0, 160.0, 236.0, 176.0, 0.0, 0.0, 0.0, 1.6776151183975017E9, 0.0, 2023-02-28 12:11:58.397
150.0, 27326.527515235844, -4208.766425700954, 15853.33238283782, -3145.8515698732817, 15358.621222808508, 7811.040617351606, -187500.02235174447, -187500.02235174447, -0.186, -0.78, -0.618, 192.0, 0.0, 0.0, 0.0, 0.0, 0.0, 0.0, 0.0, 0.0, 0.0, 1.6776151184015188E9, 0.0, 2023-02-28 12:11:58.401
151.0, 27304.73456439192, -4207.40296928918, 15830.824176171325, -3139.7048401480724, 15350.596946549053, 7718.0126569286185, -187500.02235174447, -187500.02235174447, -0.186, -0.78, -0.618, 192.0, 0.0, 0.0, 0.0, 0.0, 0.0, 0.0, 0.0, 0.0, 0.0, 1.6776151184065537E9, 0.0, 2023-02-28 12:11:58.406
152.0, 27166.198452257926, -4209.749902456988, 15049.518948736066, -3133.312241233855, 14945.225709107604, 7395.655798394179, -187500.02235174447, -187500.02235174447, -0.186, -0.78, -0.618, 192.0, 0.0, 0.0, 0.0, 0.0, 0.0, 0.0, 0.0, 0.0, 0.0, 1.6776151184104996E9, 0.0, 2023-02-28 12:11:58.410
153.0, 27174.155673284018, -4212.610925747267, 14965.454037839656, -3139.101343047779, 14897.214162017604, 7441.409819294193, -187500.02235174447, -187500.02235174447, -0.186, -0.78, -0.618, 192.0, 0.0, 0.0, 0.0, 0.0, 0.0, 0.0, 0.0, 0.0, 0.0, 1.6776151184134767E9, 0.0, 2023-02-28 12:11:58.413
154.0, 27309.339023749715, -4213.326181569837, 15744.524090829384, -3146.5444739513964, 15300.529038969165, 7777.982387302207, -187500.02235174447, -187500.02235174447, -0.186, -0.78, -0.618, 192.0, 0.0, 0.0, 0.0, 0.0, 0.0, 0.0, 0.0, 0.0, 0.0, 1.6776151184174902E9, 0.0, 2023-02-28 12:11:58.417
155.0, 27320.26902678836, -4209.571088501345, 15924.075654038867, -3141.2918140043994, 15399.815487839638, 7766.247721463171, -187500.02235174447, -187500.02235174447, -0.186, -0.78, -0.618, 192.0, 0.0, 0.0, 0.0, 0.0, 0.0, 0.0, 0.0, 0.0, 0.0, 1.6776151184216175E9, 0.0, 2023-02-28 12:11:58.421
156.0, 27193.758153171322, -4203.111434353761, 15165.748019903664, -3130.406514454665, 15009.464622672156, 7431.172720333662, -187500.02235174447, -187500.02235174447, -0.186, -0.78, -0.618, 192.0, 0.0, 0.0, 0.0, 0.0, 0.0, 0.0, 0.0, 0.0, 0.0, 1.6776151184259026E9, 0.0, 2023-02-28 12:11:58.425
157.0, 27170.959373826907, -4203.066730864851, 14890.262769492003, -3133.0663720448465, 14861.473722633567, 7391.341911714306, -187500.02235174447, -187500.02235174447, -0.186, -0.78, -0.618, 192.0, 0.0, 0.0, 0.0, 0.0, 0.0, 0.0, 0.0, 0.0, 0.0, 1.677615118429512E9, 0.0, 2023-02-28 12:11:58.429
158.0, 27288.127218261627, -4208.006466389474, 15608.737243263395, -3143.1246570497347, 15226.768282266652, 7723.690000020266, -187500.02235174447, -187500.02235174447, -0.186, -0.78, -0.618, 192.0, 0.0, 0.0, 0.0, 0.0, 0.0, 0.0, 0.0, 0.0, 0.0, 1.6776151184345489E9, 0.0, 2023-02-28 12:11:58.434
159.0, 27328.56152398128, -4208.744073956499, 15980.692622744158, -3140.978889582025, 15425.363531752055, 7804.737425415209, -187500.02235174447, -187500.02235174447, -0.184, -0.776, -0.622, 192.0, 250.0, 64.0, 231.0, 192.0, 236.0, 144.0, 0.0, 0.0, 0.0, 1.677615118438528E9, 0.0, 2023-02-28 12:11:58.438
160.0, 27199.43549626297, -4209.414626290158, 15298.092698823537, -3131.345287721788, 15076.341042082435, 7477.083203444863, -187500.02235174447, -187500.02235174447, -0.184, -0.776, -0.622, 192.0, 0.0, 0.0, 0.0, 0.0, 0.0, 0.0, 0.0, 0.0, 0.0, 1.6776151184415495E9, 0.0, 2023-02-28 12:11:58.441
161.0, 27136.31416992118, -4211.694504224599, 14849.470835861068, -3131.9264330776255, 14838.071446188862, 7363.31282416735, -187500.02235174447, -187500.02235174447, -0.184, -0.776, -0.622, 192.0, 0.0, 0.0, 0.0, 0.0, 0.0, 0.0, 0.0, 0.0, 0.0, 1.6776151184455087E9, 0.0, 2023-02-28 12:11:58.445
162.0, 27240.76387176083, -4219.249393850493, 15461.685116491928, -3143.2140640275557, 15148.358362717434, 7671.588083694945, -187500.02235174447, -187500.02235174447, -0.184, -0.776, -0.622, 192.0, 0.0, 0.0, 0.0, 0.0, 0.0, 0.0, 0.0, 0.0, 0.0, 1.6776151184495032E9, 0.0, 2023-02-28 12:11:58.449
163.0, 27319.68788143252, -4221.328106084837, 16001.524448576505, -3144.465761717053, 15430.884412632515, 7827.089169870516, -187500.02235174447, -187500.02235174447, -0.184, -0.776, -0.622, 192.0, 0.0, 0.0, 0.0, 0.0, 0.0, 0.0, 0.0, 0.0, 0.0, 1.6776151184535544E9, 0.0, 2023-02-28 12:11:58.453
164.0, 27180.72708615388, -4227.474835810046, 15444.921308150448, -3135.949747079581, 15145.989077805172, 7533.610765172335, -187500.02235174447, -187500.02235174447, -0.184, -0.776, -0.622, 192.0, 0.0, 0.0, 0.0, 0.0, 0.0, 0.0, 0.0, 0.0, 0.0, 1.677615118457575E9, 0.0, 2023-02-28 12:11:58.457
165.0, 27073.952802890875, -4232.995716690507, 14855.79637954192, -3134.630994156718, 14835.433940343135, 7343.4644750910375, -187500.02235174447, -187500.02235174447, -0.184, -0.776, -0.622, 192.0, 0.0, 0.0, 0.0, 0.0, 0.0, 0.0, 0.0, 0.0, 0.0, 1.6776151184615457E9, 0.0, 2023-02-28 12:11:58.461
166.0, 27163.04685628973, -4234.69444926911, 15315.437652520855, -3143.035250071913, 15070.08255363495, 7601.783585761022, -187500.02235174447, -187500.02235174447, -0.184, -0.776, -0.622, 192.0, 0.0, 0.0, 0.0, 0.0, 0.0, 0.0, 0.0, 0.0, 0.0, 1.6776151184665678E9, 0.0, 2023-02-28 12:11:58.466
167.0, 27252.275020155314, -4236.683754525632, 15984.313605345918, -3146.030383828924, 15418.970932837838, 7832.922975173352, -187500.02235174447, -187500.02235174447, -0.184, -0.776, -0.622, 192.0, 0.0, 0.0, 0.0, 0.0, 0.0, 0.0, 0.0, 0.0, 0.0, 1.6776151184695654E9, 0.0, 2023-02-28 12:11:58.469
168.0, 27151.200431728415, -4240.394144105214, 15593.873333200614, -3138.3190319918435, 15219.436910085311, 7590.630065277823, -187500.02235174447, -187500.02235174447, -0.184, -0.776, -0.622, 192.0, 0.0, 0.0, 0.0, 0.0, 0.0, 0.0, 0.0, 0.0, 0.0, 1.6776151184736314E9, 0.0, 2023-02-28 12:11:58.473
169.0, 27018.09579349706, -4247.099667441806, 14898.801135873931, -3135.972098824036, 14856.93631850914, 7336.602489543258, -187500.02235174447, -187500.02235174447, -0.178, -0.772, -0.62, 192.0, 250.0, 112.0, 231.0, 224.0, 236.0, 160.0, 0.0, 0.0, 0.0, 1.6776151184775755E9, 0.0, 2023-02-28 12:11:58.477
170.0, 27065.727360931323, -4252.5087895999895, 15180.120191588425, -3144.8010378838826, 14995.852410298874, 7529.185119770184, -187500.02235174447, -187500.02235174447, -0.178, -0.772, -0.62, 192.0, 0.0, 0.0, 0.0, 0.0, 0.0, 0.0, 0.0, 0.0, 0.0, 1.6776151184815772E9, 0.0, 2023-02-28 12:11:58.481
171.0, 27179.631850675567, -4250.206559921094, 15932.748130887525, -3149.1149245637566, 15384.772763821216, 7819.914259900363, -187500.02235174447, -187500.02235174447, -0.178, -0.772, -0.62, 192.0, 0.0, 0.0, 0.0, 0.0, 0.0, 0.0, 0.0, 0.0, 0.0, 1.677615118485595E9, 0.0, 2023-02-28 12:11:58.485
172.0, 27124.98183548234, -4246.674984297155, 15730.911878456101, -3141.8729593602375, 15283.094678294025, 7656.724173632166, -187500.02235174447, -187500.02235174447, -0.178, -0.772, -0.62, 192.0, 0.0, 0.0, 0.0, 0.0, 0.0, 0.0, 0.0, 0.0, 0.0, 1.67761511849069E9, 0.0, 2023-02-28 12:11:58.490
173.0, 26987.563310571113, -4252.799362277909, 14970.706697786654, -3138.229625014022, 14879.869208320286, 7358.261329920451, -187500.02235174447, -187500.02235174447, -0.178, -0.772, -0.62, 192.0, 0.0, 0.0, 0.0, 0.0, 0.0, 0.0, 0.0, 0.0, 0.0, 1.6776151184936144E9, 0.0, 2023-02-28 12:11:58.493
174.0, 27006.38347940248, -4259.616644336777, 15054.101056349404, -3145.3821832397207, 14912.435699991669, 7473.641034798746, -187500.02235174447, -187500.02235174447, -0.178, -0.772, -0.62, 192.0, 0.0, 0.0, 0.0, 0.0, 0.0, 0.0, 0.0, 0.0, 0.0, 1.6776151184966207E9, 0.0, 2023-02-28 12:11:58.496
175.0, 27133.967236753375, -4261.091859470828, 15843.22939434402, -3151.595968198296, 15323.50663226922, 7795.1485270438825, -187500.02235174447, -187500.02235174447, -0.178, -0.772, -0.62, 192.0, 0.0, 0.0, 0.0, 0.0, 0.0, 0.0, 0.0, 0.0, 0.0, 1.6776151185015876E9, 0.0, 2023-02-28 12:11:58.501
176.0, 27101.35604159308, -4263.729365316554, 15849.510234535961, -3146.7679913959496, 15327.708760226818, 7709.80956671352, -187500.02235174447, -187500.02235174447, -0.178, -0.772, -0.62, 192.0, 0.0, 0.0, 0.0, 0.0, 0.0, 0.0, 0.0, 0.0, 0.0, 1.6776151185056973E9, 0.0, 2023-02-28 12:11:58.505
177.0, 26962.350542825527, -4267.327996173858, 15068.003841400605, -3140.844779115293, 14921.689322196165, 7378.93669354161, -187500.02235174447, -187500.02235174447, -0.178, -0.772, -0.62, 192.0, 0.0, 0.0, 0.0, 0.0, 0.0, 0.0, 0.0, 0.0, 0.0, 1.6776151185095904E9, 0.0, 2023-02-28 12:11:58.509
178.0, 26959.78009221317, -4268.222065952071, 14953.384095833791, -3144.488113461508, 14854.142350452228, 7416.934659115632, -187500.02235174447, -187500.02235174447, -0.178, -0.772, -0.62, 192.0, 0.0, 0.0, 0.0, 0.0, 0.0, 0.0, 0.0, 0.0, 0.0, 1.6776151185135891E9, 0.0, 2023-02-28 12:11:58.513
179.0, 27087.944994919897, -4270.457240397602, 15726.106253398211, -3153.3617560102653, 15246.594279598508, 7753.596634101467, -187500.02235174447, -187500.02235174447, -0.184, -0.776, -0.622, 192.0, 250.0, 64.0, 231.0, 192.0, 236.0, 144.0, 0.0, 0.0, 0.0, 1.6776151185186357E9, 0.0, 2023-02-28 12:11:58.518
180.0, 27099.5455502922, -4270.010205508495, 15938.82780537937, -3150.232511786522, 15360.029382709192, 7757.172913214316, -187500.02235174447, -187500.02235174447, -0.184, -0.776, -0.622, 192.0, 0.0, 0.0, 0.0, 0.0, 0.0, 0.0, 0.0, 0.0, 0.0, 1.6776151185216234E9, 0.0, 2023-02-28 12:11:58.521
181.0, 26964.42925505987, -4269.138487474738, 15191.072546371526, -3141.470627960042, 14973.567721076934, 7419.840385894822, -187500.02235174447, -187500.02235174447, -0.184, -0.776, -0.622, 192.0, 0.0, 0.0, 0.0, 0.0, 0.0, 0.0, 0.0, 0.0, 0.0, 1.6776151185246408E9, 0.0, 2023-02-28 12:11:58.524
182.0, 26935.506097734702, -4269.317301430381, 14890.553342169922, -3144.085782061313, 14810.914076675663, 7371.292396937895, -187500.02235174447, -187500.02235174447, -0.184, -0.776, -0.622, 192.0, 0.0, 0.0, 0.0, 0.0, 0.0, 0.0, 0.0, 0.0, 0.0, 1.6776151185296214E9, 0.0, 2023-02-28 12:11:58.529
183.0, 27057.367808505038, -4271.284254942448, 15594.968568678925, -3153.786439154916, 15169.123133316414, 7702.701711976732, -187500.02235174447, -187500.02235174447, -0.184, -0.776, -0.622, 192.0, 0.0, 0.0, 0.0, 0.0, 0.0, 0.0, 0.0, 0.0, 0.0, 1.6776151185336323E9, 0.0, 2023-02-28 12:11:58.533
184.0, 27094.65051825649, -4274.569961377378, 15994.103669417344, -3153.3841077547204, 15377.195522450867, 7795.461451466257, -187500.02235174447, -187500.02235174447, -0.184, -0.776, -0.622, 192.0, 0.0, 0.0, 0.0, 0.0, 0.0, 0.0, 0.0, 0.0, 0.0, 1.6776151185376332E9, 0.0, 2023-02-28 12:11:58.537
185.0, 26987.786828015665, -4268.400879907713, 15329.407492805421, -3142.81173262736, 15039.237146286625, 7477.19496216714, -187500.02235174447, -187500.02235174447, -0.184, -0.776, -0.622, 192.0, 0.0, 0.0, 0.0, 0.0, 0.0, 0.0, 0.0, 0.0, 0.0, 1.6776151185416667E9, 0.0, 2023-02-28 12:11:58.541
186.0, 26928.152373808905, -4269.496115386023, 14860.177321455161, -3143.6387471722064, 14794.01615786745, 7348.717135038035, -187500.02235174447, -187500.02235174447, -0.184, -0.776, -0.622, 192.0, 0.0, 0.0, 0.0, 0.0, 0.0, 0.0, 0.0, 0.0, 0.0, 1.6776151185456874E9, 0.0, 2023-02-28 12:11:58.545
187.0, 27025.36011044504, -4273.161801476694, 15449.235194830322, -3153.808790899371, 15090.802620745018, 7653.818446852976, -187500.02235174447, -187500.02235174447, -0.184, -0.776, -0.622, 192.0, 0.0, 0.0, 0.0, 0.0, 0.0, 0.0, 0.0, 0.0, 0.0, 1.6776151185496583E9, 0.0, 2023-02-28 12:11:58.549
188.0, 27107.726288762846, -4269.65257759721, 16007.559419579438, -3153.853494388282, 15382.269368442223, 7829.1902338493155, -187500.02235174447, -187500.02235174447, -0.184, -0.776, -0.622, 192.0, 0.0, 0.0, 0.0, 0.0, 0.0, 0.0, 0.0, 0.0, 0.0, 1.677615118552678E9, 0.0, 2023-02-28 12:11:58.552
189.0, 27007.791639303166, -4268.043251996428, 15477.018413188269, -3144.5104652059636, 15109.645141320843, 7544.116085066329, -187500.02235174447, -187500.02235174447, -0.182, -0.778, -0.624, 192.0, 250.0, 80.0, 231.0, 176.0, 236.0, 128.0, 0.0, 0.0, 0.0, 1.67761511855767E9, 0.0, 2023-02-28 12:11:58.557
190.0, 26907.879341587945, -4272.714766587587, 14869.810923315397, -3143.370526238743, 14788.025890353429, 7344.135027424697, -187500.02235174447, -187500.02235174447, -0.182, -0.778, -0.624, 192.0, 0.0, 0.0, 0.0, 0.0, 0.0, 0.0, 0.0, 0.0, 0.0, 1.677615118561671E9, 0.0, 2023-02-28 12:11:58.561
191.0, 26995.833456019576, -4273.2288567100595, 15303.45711749281, -3151.975947854036, 15006.134212748315, 7594.519268813046, -187500.02235174447, -187500.02235174447, -0.182, -0.778, -0.624, 192.0, 0.0, 0.0, 0.0, 0.0, 0.0, 0.0, 0.0, 0.0, 0.0, 1.6776151185656679E9, 0.0, 2023-02-28 12:11:58.565
192.0, 27101.80307648219, -4270.904275286707, 15984.380660579285, -3154.9934333555025, 15362.622185066008, 7833.638230995922, -187500.02235174447, -187500.02235174447, -0.182, -0.778, -0.624, 192.0, 0.0, 0.0, 0.0, 0.0, 0.0, 0.0, 0.0, 0.0, 0.0, 1.6776151185696864E9, 0.0, 2023-02-28 12:11:58.569
193.0, 27018.16284873043, -4270.770164819975, 15620.069577702234, -3147.8632268742595, 15175.806304908552, 7604.97988521813, -187500.02235174447, -187500.02235174447, -0.182, -0.778, -0.624, 192.0, 0.0, 0.0, 0.0, 0.0, 0.0, 0.0, 0.0, 0.0, 0.0, 1.6776151185747733E9, 0.0, 2023-02-28 12:11:58.574
194.0, 26903.61015839698, -4272.446545654124, 14913.486231981067, -3143.1917122831005, 14808.678902230133, 7349.588853071792, -187500.02235174447, -187500.02235174447, -0.182, -0.778, -0.624, 192.0, 0.0, 0.0, 0.0, 0.0, 0.0, 0.0, 0.0, 0.0, 0.0, 1.6776151185777194E9, 0.0, 2023-02-28 12:11:58.577
195.0, 26974.53224355367, -4271.440717153635, 15162.90934835784, -3149.9642908530586, 14932.842842679363, 7533.186082027684, -187500.02235174447, -187500.02235174447, -0.182, -0.778, -0.624, 192.0, 0.0, 0.0, 0.0, 0.0, 0.0, 0.0, 0.0, 0.0, 0.0, 1.6776151185806713E9, 0.0, 2023-02-28 12:11:58.580
196.0, 27102.764201493766, -4266.679795584654, 15921.95223831561, -3153.428811243631, 15329.452196294333, 7828.78790244912, -187500.02235174447, -187500.02235174447, -0.182, -0.778, -0.624, 192.0, 0.0, 0.0, 0.0, 0.0, 0.0, 0.0, 0.0, 0.0, 0.0, 1.6776151185857563E9, 0.0, 2023-02-28 12:11:58.585
197.0, 27044.359093232048, -4267.484458385045, 15753.285974655864, -3146.276253017933, 15245.58845109802, 7673.778554651565, -187500.02235174447, -187500.02235174447, -0.182, -0.778, -0.624, 192.0, 0.0, 0.0, 0.0, 0.0, 0.0, 0.0, 0.0, 0.0, 0.0, 1.6776151185896933E9, 0.0, 2023-02-28 12:11:58.589
198.0, 26915.61304516948, -4273.832353810353, 14988.319872417436, -3143.52698844993, 14844.441693358624, 7367.090268980297, -187500.02235174447, -187500.02235174447, -0.182, -0.778, -0.624, 192.0, 0.0, 0.0, 0.0, 0.0, 0.0, 0.0, 0.0, 0.0, 0.0, 1.6776151185937233E9, 0.0, 2023-02-28 12:11:58.593
199.0, 26954.460377032803, -4274.1676299771825, 15044.378047511345, -3149.785476897416, 14866.07818199136, 7471.562322564402, -187500.02235174447, -187500.02235174447, -0.18, -0.774, -0.624, 192.0, 250.0, 96.0, 231.0, 208.0, 236.0, 128.0, 0.0, 0.0, 0.0, 1.6776151185976875E9, 0.0, 2023-02-28 12:11:58.597
200.0, 27081.530044261224, -4273.161801476694, 15832.880536661212, -3156.62511070074, 15273.952814811804, 7797.853088122975, -187500.02235174447, -187500.02235174447, -0.18, -0.774, -0.624, 192.0, 0.0, 0.0, 0.0, 0.0, 0.0, 0.0, 0.0, 0.0, 0.0, 1.6776151186027083E9, 0.0, 2023-02-28 12:11:58.602
201.0, 27058.6865614279, -4274.569961377378, 15869.716211523559, -3151.7971338983934, 15301.020777347181, 7724.405255842836, -187500.02235174447, -187500.02235174447, -0.18, -0.774, -0.624, 192.0, 0.0, 0.0, 0.0, 0.0, 0.0, 0.0, 0.0, 0.0, 0.0, 1.6776151186057408E9, 0.0, 2023-02-28 12:11:58.605
202.0, 26929.068795331576, -4276.805135822909, 15093.328367868467, -3145.426886728631, 14899.650502163233, 7390.581952402825, -187500.02235174447, -187500.02235174447, -0.18, -0.774, -0.624, 192.0, 0.0, 0.0, 0.0, 0.0, 0.0, 0.0, 0.0, 0.0, 0.0, 1.6776151186087143E9, 0.0, 2023-02-28 12:11:58.608
203.0, 26936.355464024004, -4275.2852171999475, 14951.439494066179, -3149.1149245637566, 14818.69248374611, 7416.174699804152, -187500.02235174447, -187500.02235174447, -0.18, -0.774, -0.624, 192.0, 0.0, 0.0, 0.0, 0.0, 0.0, 0.0, 0.0, 0.0, 0.0, 1.6776151186137164E9, 0.0, 2023-02-28 12:11:58.613
204.0, 27058.954782361365, -4276.603970122811, 15713.410462547597, -3157.6309392012286, 15208.261037857657, 7757.351727169958, -187500.02235174447, -187500.02235174447, -0.18, -0.774, -0.624, 192.0, 0.0, 0.0, 0.0, 0.0, 0.0, 0.0, 0.0, 0.0, 0.0, 1.6776151186177464E9, 0.0, 2023-02-28 12:11:58.617
205.0, 27075.517425002745, -4276.89454280073, 15953.11057008631, -3155.440468244609, 15331.530908528675, 7776.149544256872, -187500.02235174447, -187500.02235174447, -0.18, -0.774, -0.624, 192.0, 0.0, 0.0, 0.0, 0.0, 0.0, 0.0, 0.0, 0.0, 0.0, 1.6776151186218207E9, 0.0, 2023-02-28 12:11:58.621
206.0, 26952.180499098362, -4274.41349916619, 15215.480651316722, -3146.0974390622905, 14956.982726691096, 7438.258223325995, -187500.02235174447, -187500.02235174447, -0.18, -0.774, -0.624, 192.0, 0.0, 0.0, 0.0, 0.0, 0.0, 0.0, 0.0, 0.0, 0.0, 1.6776151186258345E9, 0.0, 2023-02-28 12:11:58.625
207.0, 26915.680100402846, -4274.637016610744, 14887.893484579741, -3147.1256193072345, 14782.862637384253, 7384.345815699794, -187500.02235174447, -187500.02235174447, -0.18, -0.774, -0.624, 192.0, 0.0, 0.0, 0.0, 0.0, 0.0, 0.0, 0.0, 0.0, 0.0, 1.6776151186297665E9, 0.0, 2023-02-28 12:11:58.629
208.0, 27039.91109608544, -4277.319225945381, 15577.355394048143, -3157.1615525676675, 15134.835557321974, 7713.229383615182, -187500.02235174447, -187500.02235174447, -0.18, -0.774, -0.624, 192.0, 0.0, 0.0, 0.0, 0.0, 0.0, 0.0, 0.0, 0.0, 0.0, 1.6776151186337712E9, 0.0, 2023-02-28 12:11:58.633
209.0, 27093.35411707808, -4275.307568944403, 16000.049233442454, -3155.976910111536, 15363.002164721747, 7816.583849976522, -187500.02235174447, -187500.02235174447, -0.182, -0.776, -0.62, 192.0, 250.0, 80.0, 231.0, 192.0, 236.0, 160.0, 0.0, 0.0, 0.0, 1.6776151186367545E9, 0.0, 2023-02-28 12:11:58.636
210.0, 26966.95500218332, -4277.185115478649, 15354.888481484471, -3148.0643925743575, 15033.716265406165, 7500.463128145115, -187500.02235174447, -187500.02235174447, -0.182, -0.776, -0.62, 192.0, 0.0, 0.0, 0.0, 0.0, 0.0, 0.0, 0.0, 0.0, 0.0, 1.6776151186418033E9, 0.0, 2023-02-28 12:11:58.641
211.0, 26899.229216483738, -4280.046138768928, 14865.385277913247, -3148.7796483969273, 14779.666337927145, 7358.596606087281, -187500.02235174447, -187500.02235174447, -0.182, -0.776, -0.62, 192.0, 0.0, 0.0, 0.0, 0.0, 0.0, 0.0, 0.0, 0.0, 0.0, 1.677615118645764E9, 0.0, 2023-02-28 12:11:58.645
212.0, 27017.91697954142, -4279.46499341309, 15431.689075432907, -3157.7650496679607, 15068.629690245354, 7645.883577571342, -187500.02235174447, -187500.02235174447, -0.182, -0.776, -0.62, 192.0, 0.0, 0.0, 0.0, 0.0, 0.0, 0.0, 0.0, 0.0, 0.0, 1.6776151186487775E9, 0.0, 2023-02-28 12:11:58.648
213.0, 27108.530951563236, -4274.726423588565, 16008.677006802203, -3157.742697923505, 15371.09349621457, 7833.146492617905, -187500.02235174447, -187500.02235174447, -0.182, -0.776, -0.62, 192.0, 0.0, 0.0, 0.0, 0.0, 0.0, 0.0, 0.0, 0.0, 0.0, 1.6776151186527648E9, 0.0, 2023-02-28 12:11:58.652
214.0, 27002.91895901191, -4272.535952631945, 15499.481916365852, -3147.103267562779, 15110.405100632323, 7560.723431196622, -187500.02235174447, -187500.02235174447, -0.182, -0.776, -0.62, 192.0, 0.0, 0.0, 0.0, 0.0, 0.0, 0.0, 0.0, 0.0, 0.0, 1.6776151186578622E9, 0.0, 2023-02-28 12:11:58.657
215.0, 26907.342899721018, -4275.03934801094, 14877.634033874756, -3145.940976851103, 14783.868465884741, 7352.248710661974, -187500.02235174447, -187500.02235174447, -0.182, -0.776, -0.62, 192.0, 0.0, 0.0, 0.0, 0.0, 0.0, 0.0, 0.0, 0.0, 0.0, 1.6776151186617768E9, 0.0, 2023-02-28 12:11:58.661
216.0, 27003.880084023487, -4273.854705554808, 15286.089812051037, -3154.524046721941, 14987.761078806054, 7592.395853089793, -187500.02235174447, -187500.02235174447, -0.182, -0.776, -0.62, 192.0, 0.0, 0.0, 0.0, 0.0, 0.0, 0.0, 0.0, 0.0, 0.0, 1.6776151186657853E9, 0.0, 2023-02-28 12:11:58.665
217.0, 27107.36866085156, -4273.251208454515, 15982.167837878209, -3157.3180147788544, 15353.592080306064, 7840.723733988254, -187500.02235174447, -187500.02235174447, -0.182, -0.776, -0.62, 192.0, 0.0, 0.0, 0.0, 0.0, 0.0, 0.0, 0.0, 0.0, 0.0, 1.6776151186698215E9, 0.0, 2023-02-28 12:11:58.669
218.0, 27032.244447737274, -4270.747813075521, 15644.030647758324, -3147.885578618715, 15186.915121902839, 7624.381199405337, -187500.02235174447, -187500.02235174447, -0.182, -0.776, -0.62, 192.0, 0.0, 0.0, 0.0, 0.0, 0.0, 0.0, 0.0, 0.0, 0.0, 1.6776151186728816E9, 0.0, 2023-02-28 12:11:58.672
219.0, 26924.151411551407, -4270.792516564431, 14926.562002487422, -3143.683450661117, 14816.03262615593, 7358.596606087281, -187500.02235174447, -187500.02235174447, -0.182, -0.778, -0.618, 192.0, 250.0, 80.0, 231.0, 176.0, 236.0, 176.0, 0.0, 0.0, 0.0, 1.6776151186767948E9, 0.0, 2023-02-28 12:11:58.676
220.0, 26978.24263313325, -4273.966464277085, 15147.799569106051, -3151.327747264832, 14923.611572219323, 7529.341581981371, -187500.02235174447, -187500.02235174447, -0.182, -0.778, -0.618, 192.0, 0.0, 0.0, 0.0, 0.0, 0.0, 0.0, 0.0, 0.0, 0.0, 1.6776151186808171E9, 0.0, 2023-02-28 12:11:58.680
221.0, 27097.869169458052, -4276.313397444892, 15914.285589967441, -3157.9662153680583, 15320.869126423495, 7827.849129181997, -187500.02235174447, -187500.02235174447, -0.182, -0.778, -0.618, 192.0, 0.0, 0.0, 0.0, 0.0, 0.0, 0.0, 0.0, 0.0, 0.0, 1.6776151186857877E9, 0.0, 2023-02-28 12:11:58.685
222.0, 27042.459194953346, -4280.068490513384, 15777.336451689775, -3152.6912036766057, 15255.154997724892, 7685.75908967961, -187500.02235174447, -187500.02235174447, -0.182, -0.778, -0.618, 192.0, 0.0, 0.0, 0.0, 0.0, 0.0, 0.0, 0.0, 0.0, 0.0, 1.677615118689807E9, 0.0, 2023-02-28 12:11:58.689
223.0, 26914.115478290976, -4282.460127170101, 15007.475317415634, -3147.5503024518853, 14853.427094629658, 7379.897818553188, -187500.02235174447, -187500.02235174447, -0.182, -0.778, -0.618, 192.0, 0.0, 0.0, 0.0, 0.0, 0.0, 0.0, 0.0, 0.0, 0.0, 1.6776151186938791E9, 0.0, 2023-02-28 12:11:58.693
224.0, 26943.798594927623, -4281.789574836442, 15030.475262460144, -3152.0206513429466, 14865.139408724239, 7471.584674308858, -187500.02235174447, -187500.02235174447, -0.182, -0.778, -0.618, 192.0, 0.0, 0.0, 0.0, 0.0, 0.0, 0.0, 0.0, 0.0, 0.0, 1.6776151186978254E9, 0.0, 2023-02-28 12:11:58.697
225.0, 27073.617526724047, -4283.533010903956, 15817.636646942694, -3160.067279346857, 15272.343489211022, 7796.243762522193, -187500.02235174447, -187500.02235174447, -0.182, -0.778, -0.618, 192.0, 0.0, 0.0, 0.0, 0.0, 0.0, 0.0, 0.0, 0.0, 0.0, 1.6776151187008328E9, 0.0, 2023-02-28 12:11:58.700
226.0, 27067.157872576463, -4281.230781225059, 15887.731717554536, -3155.0157850999576, 15311.906076896916, 7738.598613571956, -187500.02235174447, -187500.02235174447, -0.182, -0.778, -0.618, 192.0, 0.0, 0.0, 0.0, 0.0, 0.0, 0.0, 0.0, 0.0, 0.0, 1.6776151187048876E9, 0.0, 2023-02-28 12:11:58.704
227.0, 26935.595504712524, -4282.594237636833, 15115.680112323775, -3149.0702210748464, 14912.592162202856, 7403.233039764529, -187500.02235174447, -187500.02235174447, -0.182, -0.778, -0.618, 192.0, 0.0, 0.0, 0.0, 0.0, 0.0, 0.0, 0.0, 0.0, 0.0, 1.6776151187088325E9, 0.0, 2023-02-28 12:11:58.708
228.0, 26926.207772041296, -4286.014054538495, 14945.560985274433, -3154.792267655405, 14815.160908122172, 7411.70435091309, -187500.02235174447, -187500.02235174447, -0.182, -0.778, -0.618, 192.0, 0.0, 0.0, 0.0, 0.0, 0.0, 0.0, 0.0, 0.0, 0.0, 1.6776151187128456E9, 0.0, 2023-02-28 12:11:58.712
229.0, 27061.011142851254, -4286.103461516316, 15702.34634904222, -3163.4870962485193, 15204.573000022532, 7754.557759113045, -187500.02235174447, -187500.02235174447, -0.182, -0.778, -0.62, 192.0, 250.0, 80.0, 231.0, 176.0, 236.0, 160.0, 0.0, 0.0, 0.0, 1.6776151187178793E9, 0.0, 2023-02-28 12:11:58.717
230.0, 27079.384276793513, -4287.243400483537, 15971.64016623976, -3161.8330671588265, 15348.339420359067, 7786.386643217403, -187500.02235174447, -187500.02235174447, -0.182, -0.778, -0.62, 192.0, 0.0, 0.0, 0.0, 0.0, 0.0, 0.0, 0.0, 0.0, 0.0, 1.677615118721846E9, 0.0, 2023-02-28 12:11:58.721
231.0, 26949.498289763724, -4287.712787117099, 15246.035485987126, -3153.6076251992736, 14973.411258865746, 7452.988022922043, -187500.02235174447, -187500.02235174447, -0.182, -0.778, -0.62, 192.0, 0.0, 0.0, 0.0, 0.0, 0.0, 0.0, 0.0, 0.0, 0.0, 1.6776151187259018E9, 0.0, 2023-02-28 12:11:58.725
232.0, 26909.55572242209, -4289.545630162434, 14894.263731749503, -3155.5969304557957, 14789.344643276292, 7376.142725484697, -187500.02235174447, -187500.02235174447, -0.182, -0.778, -0.62, 192.0, 0.0, 0.0, 0.0, 0.0, 0.0, 0.0, 0.0, 0.0, 0.0, 1.6776151187288992E9, 0.0, 2023-02-28 12:11:58.728
233.0, 27030.478659925302, -4290.730272618565, 15565.88894914257, -3164.202352071089, 15136.489586411666, 7696.823203184987, -187500.02235174447, -187500.02235174447, -0.182, -0.778, -0.62, 192.0, 0.0, 0.0, 0.0, 0.0, 0.0, 0.0, 0.0, 0.0, 0.0, 1.677615118732842E9, 0.0, 2023-02-28 12:11:58.732
234.0, 27083.78757045121, -4289.679740629165, 16015.024902227511, -3163.844724159804, 15370.981737492293, 7813.566364475056, -187500.02235174447, -187500.02235174447, -0.182, -0.778, -0.62, 192.0, 0.0, 0.0, 0.0, 0.0, 0.0, 0.0, 0.0, 0.0, 0.0, 1.6776151187368653E9, 0.0, 2023-02-28 12:11:58.736
235.0, 26964.608069015514, -4289.567981906889, 15388.19258072288, -3155.105192077779, 15047.820216157463, 7503.8829450467765, -187500.02235174447, -187500.02235174447, -0.182, -0.778, -0.62, 192.0, 0.0, 0.0, 0.0, 0.0, 0.0, 0.0, 0.0, 0.0, 0.0, 1.6776151187409296E9, 0.0, 2023-02-28 12:11:58.740
236.0, 26897.172855993853, -4289.590333651345, 14875.600025129323, -3154.4793432330302, 14779.174599549127, 7355.802638030367, -187500.02235174447, -187500.02235174447, -0.182, -0.778, -0.62, 192.0, 0.0, 0.0, 0.0, 0.0, 0.0, 0.0, 0.0, 0.0, 0.0, 1.677615118746872E9, 0.0, 2023-02-28 12:11:58.746
237.0, 27008.529246870192, -4289.053891784417, 15418.076863059625, -3162.5706747258514, 15058.370239540369, 7644.631879881845, -187500.02235174447, -187500.02235174447, -0.182, -0.778, -0.62, 192.0, 0.0, 0.0, 0.0, 0.0, 0.0, 0.0, 0.0, 0.0, 0.0, 1.67761511874988E9, 0.0, 2023-02-28 12:11:58.749
238.0, 27095.23166361233, -4286.863420827797, 16014.68962606068, -3162.749488681494, 15374.781534049695, 7840.634327010433, -187500.02235174447, -187500.02235174447, -0.182, -0.778, -0.62, 192.0, 0.0, 0.0, 0.0, 0.0, 0.0, 0.0, 0.0, 0.0, 0.0, 1.6776151187540443E9, 0.0, 2023-02-28 12:11:58.754
239.0, 26995.028793219186, -4286.70695861661, 15528.561535902207, -3154.2558257884775, 15125.55958337302, 7568.613596989346, -187500.02235174447, -187500.02235174447, -0.176, -0.778, -0.622, 192.0, 250.0, 128.0, 231.0, 176.0, 236.0, 144.0, 0.0, 0.0, 0.0, 1.6776151187569244E9, 0.0, 2023-02-28 12:11:58.756
240.0, 26907.678175887846, -4284.829412082364, 14889.927493325175, -3151.238340287011, 14792.853867155776, 7353.7909810293895, -187500.02235174447, -187500.02235174447, -0.176, -0.778, -0.622, 192.0, 0.0, 0.0, 0.0, 0.0, 0.0, 0.0, 0.0, 0.0, 0.0, 1.6776151187609165E9, 0.0, 2023-02-28 12:11:58.760
241.0, 26995.9228629974, -4282.057795769906, 15271.516474666176, -3158.726174679539, 14985.905884016263, 7585.779736731021, -187500.02235174447, -187500.02235174447, -0.176, -0.778, -0.622, 192.0, 0.0, 0.0, 0.0, 0.0, 0.0, 0.0, 0.0, 0.0, 0.0, 1.6776151187649035E9, 0.0, 2023-02-28 12:11:58.764
242.0, 27108.083916674128, -4278.816792823886, 15982.167837878209, -3162.257750303477, 15354.508501828732, 7843.294184600614, -187500.02235174447, -187500.02235174447, -0.176, -0.778, -0.622, 192.0, 0.0, 0.0, 0.0, 0.0, 0.0, 0.0, 0.0, 0.0, 0.0, 1.6776151187689204E9, 0.0, 2023-02-28 12:11:58.768
243.0, 27041.051035052664, -4277.721557345576, 15671.791514371815, -3154.2781775329327, 15199.029767397615, 7634.707705343689, -187500.02235174447, -187500.02235174447, -0.176, -0.778, -0.622, 192.0, 0.0, 0.0, 0.0, 0.0, 0.0, 0.0, 0.0, 0.0, 0.0, 1.6776151187739904E9, 0.0, 2023-02-28 12:11:58.773
244.0, 26926.27482727466, -4278.168592234682, 14945.00219166305, -3150.232511786522, 14820.748844235999, 7358.596606087281, -187500.02235174447, -187500.02235174447, -0.176, -0.778, -0.622, 192.0, 0.0, 0.0, 0.0, 0.0, 0.0, 0.0, 0.0, 0.0, 0.0, 1.6776151187779367E9, 0.0, 2023-02-28 12:11:58.777
245.0, 26975.046333676142, -4279.889676557741, 15138.121263756904, -3157.1839043121226, 14916.928400627185, 7521.317305721916, -187500.02235174447, -187500.02235174447, -0.176, -0.778, -0.622, 192.0, 0.0, 0.0, 0.0, 0.0, 0.0, 0.0, 0.0, 0.0, 0.0, 1.6776151187819672E9, 0.0, 2023-02-28 12:11:58.781
246.0, 27088.816712953656, -4283.734176604054, 15911.513973654983, -3163.91177939317, 15315.482356009765, 7824.40696053588, -187500.02235174447, -187500.02235174447, -0.176, -0.778, -0.622, 192.0, 0.0, 0.0, 0.0, 0.0, 0.0, 0.0, 0.0, 0.0, 0.0, 1.6776151187849176E9, 0.0, 2023-02-28 12:11:58.784
247.0, 27046.236639766295, -4284.471784171079, 15802.817440368824, -3156.6698141896504, 15272.857579333495, 7692.218743827194, -187500.02235174447, -187500.02235174447, -0.176, -0.778, -0.622, 192.0, 0.0, 0.0, 0.0, 0.0, 0.0, 0.0, 0.0, 0.0, 0.0, 1.677615118788932E9, 0.0, 2023-02-28 12:11:58.788
248.0, 26925.157240051896, -4283.354196948314, 15028.731826392632, -3150.0760495753348, 14873.387202428246, 7376.500353395982, -187500.02235174447, -187500.02235174447, -0.176, -0.778, -0.622, 192.0, 0.0, 0.0, 0.0, 0.0, 0.0, 0.0, 0.0, 0.0, 0.0, 1.677615118792922E9, 0.0, 2023-02-28 12:11:58.792
249.0, 26943.485670505248, -4285.254095227015, 15023.903849590284, -3156.3792415117314, 14863.41832440118, 7463.940377705143, -187500.02235174447, -187500.02235174447, -0.184, -0.776, -0.624, 192.0, 250.0, 64.0, 231.0, 192.0, 236.0, 128.0, 0.0, 0.0, 0.0, 1.6776151187970357E9, 0.0, 2023-02-28 12:11:58.797
250.0, 27083.92168091794, -4284.5611911489, 15809.500611960962, -3164.492924749008, 15267.046125775114, 7795.975541588729, -187500.02235174447, -187500.02235174447, -0.184, -0.776, -0.624, 192.0, 0.0, 0.0, 0.0, 0.0, 0.0, 0.0, 0.0, 0.0, 0.0, 1.6776151188019505E9, 0.0, 2023-02-28 12:11:58.801
251.0, 27073.438712768402, -4286.326978960869, 15909.703482354103, -3160.8048869138825, 15323.08194912457, 7747.919291009819, -187500.02235174447, -187500.02235174447, -0.184, -0.776, -0.624, 192.0, 0.0, 0.0, 0.0, 0.0, 0.0, 0.0, 0.0, 0.0, 0.0, 1.6776151188059647E9, 0.0, 2023-02-28 12:11:58.805
252.0, 26943.686836205346, -4285.589371393844, 15140.222327735702, -3153.071183332346, 14926.316133298415, 7417.247583538006, -187500.02235174447, -187500.02235174447, -0.184, -0.776, -0.624, 192.0, 0.0, 0.0, 0.0, 0.0, 0.0, 0.0, 0.0, 0.0, 0.0, 1.6776151188099873E9, 0.0, 2023-02-28 12:11:58.809
253.0, 26932.220391299772, -4285.365853949292, 14940.822415449908, -3155.552226966885, 14818.156041879183, 7415.504147470492, -187500.02235174447, -187500.02235174447, -0.184, -0.776, -0.624, 192.0, 0.0, 0.0, 0.0, 0.0, 0.0, 0.0, 0.0, 0.0, 0.0, 1.677615118812947E9, 0.0, 2023-02-28 12:11:58.812
254.0, 27057.323105016127, -4287.645731883733, 15687.52714246835, -3164.0905933488125, 15199.745023220185, 7750.757962555643, -187500.02235174447, -187500.02235174447, -0.184, -0.776, -0.624, 192.0, 0.0, 0.0, 0.0, 0.0, 0.0, 0.0, 0.0, 0.0, 0.0, 1.677615118816942E9, 0.0, 2023-02-28 12:11:58.816
255.0, 27088.03440189772, -4286.774013849976, 15982.25724485603, -3161.430735758631, 15354.776722762195, 7795.372044488436, -187500.02235174447, -187500.02235174447, -0.184, -0.776, -0.624, 192.0, 0.0, 0.0, 0.0, 0.0, 0.0, 0.0, 0.0, 0.0, 0.0, 1.6776151188209753E9, 0.0, 2023-02-28 12:11:58.820
0.0, 26958.506042779216, -4286.885772572252, 15268.11900950897, -3152.177113554134, 14990.644453840787, 7463.269825371483, -187500.02235174447, -187500.02235174447, -0.184, -0.776, -0.624, 192.0, 0.0, 0.0, 0.0, 0.0, 0.0, 0.0, 0.0, 0.0, 0.0, 1.677615118825008E9, 0.0, 2023-02-28 12:11:58.825
1.0, 26920.731594649744, -4287.511621417001, 14889.435754947157, -3153.3394042658097, 14795.245503812494, 7376.478001651526, -187500.02235174447, -187500.02235174447, -0.184, -0.776, -0.624, 192.0, 0.0, 0.0, 0.0, 0.0, 0.0, 0.0, 0.0, 0.0, 0.0, 1.6776151188299613E9, 0.0, 2023-02-28 12:11:58.829
2.0, 27033.71966287132, -4291.356121463314, 15545.302992499233, -3164.1576485821784, 15133.852080565941, 7694.051586872529, -187500.02235174447, -187500.02235174447, -0.184, -0.776, -0.624, 192.0, 0.0, 0.0, 0.0, 0.0, 0.0, 0.0, 0.0, 0.0, 0.0, 1.6776151188339725E9, 0.0, 2023-02-28 12:11:58.833
3.0, 27087.877939686532, -4293.747758120031, 16019.964637752133, -3164.492924749008, 15384.213970209834, 7819.377818033436, -187500.02235174447, -187500.02235174447, -0.184, -0.776, -0.624, 192.0, 0.0, 0.0, 0.0, 0.0, 0.0, 0.0, 0.0, 0.0, 0.0, 1.677615118836962E9, 0.0, 2023-02-28 12:11:58.836
4.0, 26976.230976132272, -4292.18313600816, 15412.354816479066, -3155.395764755698, 15074.329385081457, 7509.604991627335, -187500.02235174447, -187500.02235174447, -0.184, -0.772, -0.618, 192.0, 250.0, 64.0, 231.0, 224.0, 236.0, 176.0, 0.0, 0.0, 0.0, 1.6776151188410215E9, 0.0, 2023-02-28 12:11:58.841
5.0, 26915.12130679146, -4288.852726084319, 14878.37164144178, -3153.3841077547204, 14796.586608479813, 7353.031021717909, -187500.02235174447, -187500.02235174447, -0.184, -0.772, -0.618, 192.0, 0.0, 0.0, 0.0, 0.0, 0.0, 0.0, 0.0, 0.0, 0.0, 1.6776151188449996E9, 0.0, 2023-02-28 12:11:58.844
6.0, 27009.356261415036, -4290.998493552029, 15398.832011083605, -3161.7436601810055, 15064.494617521123, 7630.349115174904, -187500.02235174447, -187500.02235174447, -0.184, -0.772, -0.618, 192.0, 0.0, 0.0, 0.0, 0.0, 0.0, 0.0, 0.0, 0.0, 0.0, 1.6776151188490343E9, 0.0, 2023-02-28 12:11:58.849
7.0, 27088.682602486922, -4292.585467408356, 16015.673102816714, -3163.91177939317, 15388.57256037862, 7829.3690478049575, -187500.02235174447, -187500.02235174447, -0.184, -0.772, -0.618, 192.0, 0.0, 0.0, 0.0, 0.0, 0.0, 0.0, 0.0, 0.0, 0.0, 1.67761511885299E9, 0.0, 2023-02-28 12:11:58.852
8.0, 27005.02002299071, -4286.595199894333, 15554.601318192641, -3152.870017632248, 15154.95212733175, 7571.429916790715, -187500.02235174447, -187500.02235174447, -0.184, -0.772, -0.618, 192.0, 0.0, 0.0, 0.0, 0.0, 0.0, 0.0, 0.0, 0.0, 0.0, 1.6776151188570354E9, 0.0, 2023-02-28 12:11:58.857
9.0, 26919.837524871535, -4282.728348103565, 14900.410461474714, -3148.7349449080166, 14814.915038933164, 7347.286623392895, -187500.02235174447, -187500.02235174447, -0.184, -0.772, -0.618, 192.0, 0.0, 0.0, 0.0, 0.0, 0.0, 0.0, 0.0, 0.0, 0.0, 1.677615118862068E9, 0.0, 2023-02-28 12:11:58.862
10.0, 26991.720735039802, -4284.985874293551, 15254.305631435589, -3158.592064212807, 14989.057479984462, 7568.032451633508, -187500.02235174447, -187500.02235174447, -0.184, -0.772, -0.618, 192.0, 0.0, 0.0, 0.0, 0.0, 0.0, 0.0, 0.0, 0.0, 0.0, 1.6776151188649852E9, 0.0, 2023-02-28 12:11:58.864
11.0, 27090.828369954634, -4287.8468975838305, 15975.194093608154, -3163.1965235706, 15361.258728654235, 7833.101789128994, -187500.02235174447, -187500.02235174447, -0.184, -0.772, -0.618, 192.0, 0.0, 0.0, 0.0, 0.0, 0.0, 0.0, 0.0, 0.0, 0.0, 1.6776151188690295E9, 0.0, 2023-02-28 12:11:58.869
12.0, 27028.332892457594, -4286.438737683146, 15695.797287916816, -3155.105192077779, 15221.828546742028, 7638.351039689904, -187500.02235174447, -187500.02235174447, -0.184, -0.772, -0.618, 192.0, 0.0, 0.0, 0.0, 0.0, 0.0, 0.0, 0.0, 0.0, 0.0, 1.677615118873062E9, 0.0, 2023-02-28 12:11:58.873
13.0, 26915.098955047008, -4287.042234783439, 14958.234424380593, -3150.7242501645387, 14835.277478131948, 7358.238978175996, -187500.02235174447, -187500.02235174447, -0.184, -0.772, -0.618, 192.0, 0.0, 0.0, 0.0, 0.0, 0.0, 0.0, 0.0, 0.0, 0.0, 1.6776151188770144E9, 0.0, 2023-02-28 12:11:58.877
14.0, 26958.975429412774, -4290.8420313408415, 15119.457557136722, -3158.05562234588, 14912.994493603052, 7507.034541014975, -187500.02235174447, -187500.02235174447, -0.18, -0.776, -0.61, 192.0, 250.0, 96.0, 231.0, 192.0, 236.0, 240.0, 0.0, 0.0, 0.0, 1.677615118881013E9, 0.0, 2023-02-28 12:11:58.881
15.0, 27079.02664888223, -4293.1889645086485, 15897.81235430388, -3164.8058491713823, 15318.07515836658, 7812.605239463478, -187500.02235174447, -187500.02235174447, -0.18, -0.776, -0.61, 192.0, 0.0, 0.0, 0.0, 0.0, 0.0, 0.0, 0.0, 0.0, 0.0, 1.6776151188850896E9, 0.0, 2023-02-28 12:11:58.885
16.0, 27042.280380997705, -4291.84785984133, 15821.257629544454, -3158.05562234588, 15285.553370184109, 7697.225534585183, -187500.02235174447, -187500.02235174447, -0.18, -0.776, -0.61, 192.0, 0.0, 0.0, 0.0, 0.0, 0.0, 0.0, 0.0, 0.0, 0.0, 1.6776151188900275E9, 0.0, 2023-02-28 12:11:58.890
17.0, 26924.978426096255, -4287.221048739082, 15045.31682077847, -3150.3442705087987, 14890.776859614476, 7380.948350542588, -187500.02235174447, -187500.02235174447, -0.18, -0.776, -0.61, 192.0, 0.0, 0.0, 0.0, 0.0, 0.0, 0.0, 0.0, 0.0, 0.0, 1.6776151188940916E9, 0.0, 2023-02-28 12:11:58.894
18.0, 26940.08820534804, -4287.556324905911, 15011.409224439769, -3156.334538022821, 14866.636975602743, 7449.009412408997, -187500.02235174447, -187500.02235174447, -0.18, -0.776, -0.61, 192.0, 0.0, 0.0, 0.0, 0.0, 0.0, 0.0, 0.0, 0.0, 0.0, 1.6776151188971877E9, 0.0, 2023-02-28 12:11:58.897
19.0, 27066.532023731714, -4290.394996451735, 15794.167315264622, -3165.0517183603906, 15271.672936877363, 7782.005701304162, -187500.02235174447, -187500.02235174447, -0.18, -0.776, -0.61, 192.0, 0.0, 0.0, 0.0, 0.0, 0.0, 0.0, 0.0, 0.0, 0.0, 1.677615118901046E9, 0.0, 2023-02-28 12:11:58.901
20.0, 27071.672924956434, -4288.718615617588, 15924.030950549955, -3159.8884653912146, 15343.645554023453, 7750.8920730223745, -187500.02235174447, -187500.02235174447, -0.18, -0.776, -0.61, 192.0, 0.0, 0.0, 0.0, 0.0, 0.0, 0.0, 0.0, 0.0, 0.0, 1.6776151189050384E9, 0.0, 2023-02-28 12:11:58.905
21.0, 26944.022112372175, -4286.774013849976, 15160.629470423399, -3151.171285053645, 14949.494892298568, 7419.572164961358, -187500.02235174447, -187500.02235174447, -0.18, -0.776, -0.61, 192.0, 0.0, 0.0, 0.0, 0.0, 0.0, 0.0, 0.0, 0.0, 0.0, 1.6776151189090612E9, 0.0, 2023-02-28 12:11:58.909
22.0, 26921.178629538852, -4291.579638907867, 14934.496871769057, -3155.552226966885, 14826.426187327646, 7402.026045563942, -187500.02235174447, -187500.02235174447, -0.18, -0.776, -0.61, 192.0, 0.0, 0.0, 0.0, 0.0, 0.0, 0.0, 0.0, 0.0, 0.0, 1.6776151189130733E9, 0.0, 2023-02-28 12:11:58.913
23.0, 27037.362997217537, -4299.223935511582, 15671.0986102937, -3166.5716369833517, 15203.120136632937, 7733.949450725252, -187500.02235174447, -187500.02235174447, -0.18, -0.776, -0.61, 192.0, 0.0, 0.0, 0.0, 0.0, 0.0, 0.0, 0.0, 0.0, 0.0, 1.6776151189180746E9, 0.0, 2023-02-28 12:11:58.918
24.0, 27077.30556455917, -4298.396920966736, 15994.796573495458, -3164.492924749008, 15377.217874195323, 7792.9133525983525, -187500.02235174447, -187500.02235174447, -0.182, -0.778, -0.61, 192.0, 250.0, 80.0, 231.0, 176.0, 236.0, 240.0, 0.0, 0.0, 0.0, 1.6776151189211142E9, 0.0, 2023-02-28 12:11:58.921
25.0, 26960.025961402174, -4295.111214531805, 15294.561123199597, -3155.105192077779, 15019.12057627685, 7470.489438830547, -187500.02235174447, -187500.02235174447, -0.182, -0.778, -0.61, 192.0, 0.0, 0.0, 0.0, 0.0, 0.0, 0.0, 0.0, 0.0, 0.0, 1.677615118925117E9, 0.0, 2023-02-28 12:11:58.925
26.0, 26911.589731167525, -4296.385263965758, 14892.252074748527, -3156.982738612025, 14806.98016965153, 7372.8123155608555, -187500.02235174447, -187500.02235174447, -0.182, -0.778, -0.61, 192.0, 0.0, 0.0, 0.0, 0.0, 0.0, 0.0, 0.0, 0.0, 0.0, 1.6776151189290922E9, 0.0, 2023-02-28 12:11:58.929
27.0, 27015.123011484506, -4300.252115756526, 15529.701474869427, -3166.504581749986, 15129.247621208147, 7684.440336756747, -187500.02235174447, -187500.02235174447, -0.182, -0.778, -0.61, 192.0, 0.0, 0.0, 0.0, 0.0, 0.0, 0.0, 0.0, 0.0, 0.0, 1.6776151189331968E9, 0.0, 2023-02-28 12:11:58.933
28.0, 27084.703991973878, -4298.128700033271, 16025.865498288334, -3165.8340294163263, 15392.886447058494, 7821.903565156886, -187500.02235174447, -187500.02235174447, -0.182, -0.778, -0.61, 192.0, 0.0, 0.0, 0.0, 0.0, 0.0, 0.0, 0.0, 0.0, 0.0, 1.6776151189371448E9, 0.0, 2023-02-28 12:11:58.937
29.0, 26985.462246592313, -4292.786633108453, 15436.897031890992, -3155.52987522243, 15096.189391158749, 7517.919840564709, -187500.02235174447, -187500.02235174447, -0.182, -0.778, -0.61, 192.0, 0.0, 0.0, 0.0, 0.0, 0.0, 0.0, 0.0, 0.0, 0.0, 1.677615118941147E9, 0.0, 2023-02-28 12:11:58.941
30.0, 26909.287501488627, -4290.774976107476, 14883.244321733036, -3153.428811243631, 14808.50008827449, 7346.54901582587, -187500.02235174447, -187500.02235174447, -0.182, -0.778, -0.61, 192.0, 0.0, 0.0, 0.0, 0.0, 0.0, 0.0, 0.0, 0.0, 0.0, 1.677615118947156E9, 0.0, 2023-02-28 12:11:58.947
31.0, 27012.843133550065, -4288.7856708509535, 15378.380164907, -3160.648424702695, 15063.421733787267, 7619.50851911408, -187500.02235174447, -187500.02235174447, -0.182, -0.778, -0.61, 192.0, 0.0, 0.0, 0.0, 0.0, 0.0, 0.0, 0.0, 0.0, 0.0, 1.6776151189500933E9, 0.0, 2023-02-28 12:11:58.950
32.0, 27105.98285269533, -4287.779842350465, 16012.722672548614, -3162.4589160035753, 15395.456897670854, 7835.35931531898, -187500.02235174447, -187500.02235174447, -0.182, -0.778, -0.61, 192.0, 0.0, 0.0, 0.0, 0.0, 0.0, 0.0, 0.0, 0.0, 0.0, 1.6776151189540873E9, 0.0, 2023-02-28 12:11:58.954
33.0, 27013.64779635046, -4286.349330705325, 15577.645966726062, -3154.1887705551117, 15175.605139208454, 7580.482373295114, -187500.02235174447, -187500.02235174447, -0.182, -0.778, -0.61, 192.0, 0.0, 0.0, 0.0, 0.0, 0.0, 0.0, 0.0, 0.0, 0.0, 1.6776151189571707E9, 0.0, 2023-02-28 12:11:58.957
34.0, 26908.929873577345, -4288.450394684123, 14908.255923778526, -3152.0877065763125, 14821.777024480944, 7342.726867524013, -187500.02235174447, -187500.02235174447, -0.178, -0.774, -0.614, 192.0, 250.0, 112.0, 231.0, 208.0, 236.0, 208.0, 0.0, 0.0, 0.0, 1.677615118961156E9, 0.0, 2023-02-28 12:11:58.961
35.0, 26987.406848359926, -4290.909086574207, 15274.846884590017, -3161.8107154143713, 15003.519058647045, 7572.301634824471, -187500.02235174447, -187500.02235174447, -0.178, -0.774, -0.614, 192.0, 0.0, 0.0, 0.0, 0.0, 0.0, 0.0, 0.0, 0.0, 0.0, 1.677615118965142E9, 0.0, 2023-02-28 12:11:58.965
36.0, 27110.967291708865, -4289.500926673523, 16062.209434772663, -3165.655215460684, 15411.90778158996, 7866.31648138958, -187500.02235174447, -187500.02235174447, -0.178, -0.774, -0.614, 192.0, 0.0, 0.0, 0.0, 0.0, 0.0, 0.0, 0.0, 0.0, 0.0, 1.6776151189691143E9, 0.0, 2023-02-28 12:11:58.969
37.0, 27018.6769388529, -4290.8420313408415, 15670.942148082513, -3157.787401412416, 15211.189116381303, 7621.028437737041, -187500.02235174447, -187500.02235174447, -0.178, -0.774, -0.614, 192.0, 0.0, 0.0, 0.0, 0.0, 0.0, 0.0, 0.0, 0.0, 0.0, 1.6776151189742076E9, 0.0, 2023-02-28 12:11:58.974
38.0, 26888.36626867846, -4293.345426719836, 14879.980967042562, -3153.786439154916, 14799.827611425831, 7321.403303313649, -187500.02235174447, -187500.02235174447, -0.178, -0.774, -0.614, 192.0, 0.0, 0.0, 0.0, 0.0, 0.0, 0.0, 0.0, 0.0, 0.0, 1.6776151189771445E9, 0.0, 2023-02-28 12:11:58.977
39.0, 26962.685818992355, -4293.904220331218, 15158.975441333705, -3162.1236398367455, 14937.29083982597, 7524.1336255232845, -187500.02235174447, -187500.02235174447, -0.178, -0.774, -0.614, 192.0, 0.0, 0.0, 0.0, 0.0, 0.0, 0.0, 0.0, 0.0, 0.0, 1.6776151189811804E9, 0.0, 2023-02-28 12:11:58.981
40.0, 27107.614530040566, -4291.356121463314, 15998.797535752958, -3167.242189317011, 15376.65908058394, 7856.995803951718, -187500.02235174447, -187500.02235174447, -0.178, -0.774, -0.614, 192.0, 0.0, 0.0, 0.0, 0.0, 0.0, 0.0, 0.0, 0.0, 0.0, 1.6776151189851406E9, 0.0, 2023-02-28 12:11:58.985
41.0, 27053.433901480905, -4288.0257115394725, 15814.663864930139, -3159.2179130575555, 15288.101469052013, 7685.557923979512, -187500.02235174447, -187500.02235174447, -0.178, -0.774, -0.614, 192.0, 0.0, 0.0, 0.0, 0.0, 0.0, 0.0, 0.0, 0.0, 0.0, 1.6776151189891436E9, 0.0, 2023-02-28 12:11:58.989
42.0, 26902.090239774017, -4290.6632173851995, 14960.380191848302, -3153.808790899371, 14840.016047956473, 7339.754085511457, -187500.02235174447, -187500.02235174447, -0.178, -0.774, -0.614, 192.0, 0.0, 0.0, 0.0, 0.0, 0.0, 0.0, 0.0, 0.0, 0.0, 1.6776151189931388E9, 0.0, 2023-02-28 12:11:58.993
43.0, 26930.253437787705, -4292.786633108453, 15029.35767523738, -3160.2460933024995, 14870.347365182324, 7462.196941637629, -187500.02235174447, -187500.02235174447, -0.178, -0.774, -0.614, 192.0, 0.0, 0.0, 0.0, 0.0, 0.0, 0.0, 0.0, 0.0, 0.0, 1.677615118997143E9, 0.0, 2023-02-28 12:11:58.997
44.0, 27084.703991973878, -4292.451356941624, 15894.772517057958, -3167.5104102504743, 15324.825385192084, 7823.468187268757, -187500.02235174447, -187500.02235174447, -0.176, -0.774, -0.612, 192.0, 250.0, 128.0, 231.0, 208.0, 236.0, 224.0, 0.0, 0.0, 0.0, 1.677615119002226E9, 0.0, 2023-02-28 12:11:59.002
45.0, 27075.383314536015, -4290.685569129654, 15936.302058255918, -3161.229570058533, 15355.827254751595, 7744.857102019442, -187500.02235174447, -187500.02235174447, -0.176, -0.774, -0.612, 192.0, 0.0, 0.0, 0.0, 0.0, 0.0, 0.0, 0.0, 0.0, 0.0, 1.6776151190051696E9, 0.0, 2023-02-28 12:11:59.005
46.0, 26917.200019025808, -4294.03833079795, 15077.436277560744, -3154.077011832835, 14906.221915033093, 7374.108716739263, -187500.02235174447, -187500.02235174447, -0.176, -0.774, -0.612, 192.0, 0.0, 0.0, 0.0, 0.0, 0.0, 0.0, 0.0, 0.0, 0.0, 1.6776151190082428E9, 0.0, 2023-02-28 12:11:59.008
47.0, 26907.007623554186, -4300.497984945534, 14927.657237965732, -3161.140163080712, 14819.050111657396, 7402.026045563942, -187500.02235174447, -187500.02235174447, -0.176, -0.774, -0.612, 192.0, 0.0, 0.0, 0.0, 0.0, 0.0, 0.0, 0.0, 0.0, 0.0, 1.6776151190131552E9, 0.0, 2023-02-28 12:11:59.013
48.0, 27064.766235919746, -4300.296819245436, 15762.427838138085, -3170.729061452039, 15253.322154679556, 7772.774430844121, -187500.02235174447, -187500.02235174447, -0.176, -0.774, -0.612, 192.0, 0.0, 0.0, 0.0, 0.0, 0.0, 0.0, 0.0, 0.0, 0.0, 1.6776151190171583E9, 0.0, 2023-02-28 12:11:59.017
49.0, 27081.105361116573, -4301.28029600147, 16025.329056421408, -3166.9963201280025, 15399.077880272614, 7794.165050287849, -187500.02235174447, -187500.02235174447, -0.176, -0.774, -0.612, 192.0, 0.0, 0.0, 0.0, 0.0, 0.0, 0.0, 0.0, 0.0, 0.0, 1.677615119021181E9, 0.0, 2023-02-28 12:11:59.021
50.0, 26927.593580197525, -4302.710807646609, 15214.564229794054, -3157.3850700122202, 14980.67557581372, 7428.579917976847, -187500.02235174447, -187500.02235174447, -0.176, -0.774, -0.612, 192.0, 0.0, 0.0, 0.0, 0.0, 0.0, 0.0, 0.0, 0.0, 0.0, 1.6776151190252287E9, 0.0, 2023-02-28 12:11:59.025
51.0, 26882.174835464342, -4305.884755359263, 14852.309507406891, -3160.5813694693293, 14783.26496878445, 7361.167056699641, -187500.02235174447, -187500.02235174447, -0.176, -0.774, -0.612, 192.0, 0.0, 0.0, 0.0, 0.0, 0.0, 0.0, 0.0, 0.0, 0.0, 1.677615119028252E9, 0.0, 2023-02-28 12:11:59.028
52.0, 27031.7303576148, -4302.42023496869, 15600.958836192947, -3168.9185701511587, 15175.269863041623, 7716.492738305657, -187500.02235174447, -187500.02235174447, -0.176, -0.774, -0.612, 192.0, 0.0, 0.0, 0.0, 0.0, 0.0, 0.0, 0.0, 0.0, 0.0, 1.6776151190322013E9, 0.0, 2023-02-28 12:11:59.032
53.0, 27096.28219560173, -4298.8216041113865, 16075.464019234661, -3167.0633753613683, 15429.140976565002, 7832.364181561969, -187500.02235174447, -187500.02235174447, -0.176, -0.774, -0.612, 192.0, 0.0, 0.0, 0.0, 0.0, 0.0, 0.0, 0.0, 0.0, 0.0, 1.6776151190361948E9, 0.0, 2023-02-28 12:11:59.036
54.0, 26961.076493391574, -4296.988761066051, 15373.731002060296, -3156.9380351231143, 15062.929995409251, 7488.549648350436, -187500.02235174447, -187500.02235174447, -0.17400000000000002, -0.77, -0.62, 192.0, 250.0, 144.0, 231.0, 240.0, 236.0, 160.0, 0.0, 0.0, 0.0, 1.6776151190412507E9, 0.0, 2023-02-28 12:11:59.041
55.0, 26885.75111457719, -4297.346388977336, 14826.828518727842, -3157.407421756676, 14770.837398867297, 7335.373143598216, -187500.02235174447, -187500.02235174447, -0.17400000000000002, -0.77, -0.62, 192.0, 0.0, 0.0, 0.0, 0.0, 0.0, 0.0, 0.0, 0.0, 0.0, 1.677615119045218E9, 0.0, 2023-02-28 12:11:59.045
56.0, 27016.151191729452, -4296.049987798928, 15444.429569772432, -3167.2198375725557, 15086.645196276331, 7654.51135093109, -187500.02235174447, -187500.02235174447, -0.17400000000000002, -0.77, -0.62, 192.0, 0.0, 0.0, 0.0, 0.0, 0.0, 0.0, 0.0, 0.0, 0.0, 1.6776151190493207E9, 0.0, 2023-02-28 12:11:59.049
57.0, 27110.6990707754, -4295.13356627626, 16092.227827576142, -3168.560942239874, 15430.81735739915, 7857.040507440628, -187500.02235174447, -187500.02235174447, -0.17400000000000002, -0.77, -0.62, 192.0, 0.0, 0.0, 0.0, 0.0, 0.0, 0.0, 0.0, 0.0, 0.0, 1.6776151190532188E9, 0.0, 2023-02-28 12:11:59.053
58.0, 26982.15418841293, -4297.905182588718, 15537.45753019542, -3159.2849682909214, 15143.865662081918, 7553.302652037461, -187500.02235174447, -187500.02235174447, -0.17400000000000002, -0.77, -0.62, 192.0, 0.0, 0.0, 0.0, 0.0, 0.0, 0.0, 0.0, 0.0, 0.0, 1.6776151190562203E9, 0.0, 2023-02-28 12:11:59.056
59.0, 26875.156387705374, -4298.508679689012, 14835.143367665216, -3156.3121862783655, 14775.374802991726, 7319.771625968412, -187500.02235174447, -187500.02235174447, -0.17400000000000002, -0.77, -0.62, 192.0, 0.0, 0.0, 0.0, 0.0, 0.0, 0.0, 0.0, 0.0, 0.0, 1.6776151190602725E9, 0.0, 2023-02-28 12:11:59.060
60.0, 26980.880138978977, -4298.218107011093, 15280.4571724483, -3164.8282009158374, 15004.390776680802, 7586.919675698242, -187500.02235174447, -187500.02235174447, -0.17400000000000002, -0.77, -0.62, 192.0, 0.0, 0.0, 0.0, 0.0, 0.0, 0.0, 0.0, 0.0, 0.0, 1.6776151190643559E9, 0.0, 2023-02-28 12:11:59.064
61.0, 27107.525123062747, -4297.27933374397, 16056.107408536365, -3168.6950527066056, 15415.841688614093, 7864.371879621969, -187500.02235174447, -187500.02235174447, -0.17400000000000002, -0.77, -0.62, 192.0, 0.0, 0.0, 0.0, 0.0, 0.0, 0.0, 0.0, 0.0, 0.0, 1.677615119069332E9, 0.0, 2023-02-28 12:11:59.069
62.0, 27019.30278769765, -4296.407615710213, 15690.231703547444, -3159.5084857354746, 15231.752721280185, 7624.9176412722645, -187500.02235174447, -187500.02235174447, -0.17400000000000002, -0.77, -0.62, 192.0, 0.0, 0.0, 0.0, 0.0, 0.0, 0.0, 0.0, 0.0, 0.0, 1.6776151190733223E9, 0.0, 2023-02-28 12:11:59.073
63.0, 26889.863835556967, -4295.938229076652, 14882.32790021037, -3154.9263781221366, 14807.226038840538, 7325.06898940432, -187500.02235174447, -187500.02235174447, -0.17400000000000002, -0.77, -0.62, 192.0, 0.0, 0.0, 0.0, 0.0, 0.0, 0.0, 0.0, 0.0, 0.0, 1.6776151190772352E9, 0.0, 2023-02-28 12:11:59.077
64.0, 26956.449682289327, -4296.206450010115, 15132.510975898622, -3162.8388956593153, 14931.032351378484, 7519.484462676581, -187500.02235174447, -187500.02235174447, -0.178, -0.774, -0.618, 192.0, 250.0, 112.0, 231.0, 208.0, 236.0, 176.0, 0.0, 0.0, 0.0, 1.6776151190812418E9, 0.0, 2023-02-28 12:11:59.081
65.0, 27096.371602579547, -4298.218107011093, 15985.833523968879, -3170.840820174315, 15377.150818961958, 7850.111466659483, -187500.02235174447, -187500.02235174447, -0.178, -0.774, -0.618, 192.0, 0.0, 0.0, 0.0, 0.0, 0.0, 0.0, 0.0, 0.0, 0.0, 1.6776151190853446E9, 0.0, 2023-02-28 12:11:59.085
66.0, 27044.739072887787, -4298.285162244459, 15835.830966929314, -3163.6659102041617, 15307.927466383871, 7690.587066481957, -187500.02235174447, -187500.02235174447, -0.178, -0.774, -0.618, 192.0, 0.0, 0.0, 0.0, 0.0, 0.0, 0.0, 0.0, 0.0, 0.0, 1.6776151190882983E9, 0.0, 2023-02-28 12:11:59.088
67.0, 26899.117457761462, -4298.240458755548, 14973.120686187827, -3156.2898345339104, 14858.679754576655, 7348.895948993677, -187500.02235174447, -187500.02235174447, -0.178, -0.774, -0.618, 192.0, 0.0, 0.0, 0.0, 0.0, 0.0, 0.0, 0.0, 0.0, 0.0, 1.6776151190922644E9, 0.0, 2023-02-28 12:11:59.092
68.0, 26927.168897052874, -4300.632095412266, 15010.626913383832, -3163.598854970796, 14871.152027982716, 7458.66536601369, -187500.02235174447, -187500.02235174447, -0.178, -0.774, -0.618, 192.0, 0.0, 0.0, 0.0, 0.0, 0.0, 0.0, 0.0, 0.0, 0.0, 1.6776151190972636E9, 0.0, 2023-02-28 12:11:59.097
69.0, 27079.60779423807, -4299.1121767893055, 15878.612205816771, -3170.974930641047, 15326.345303815044, 7818.886079655419, -187500.02235174447, -187500.02235174447, -0.178, -0.774, -0.618, 192.0, 0.0, 0.0, 0.0, 0.0, 0.0, 0.0, 0.0, 0.0, 0.0, 1.6776151191014068E9, 0.0, 2023-02-28 12:11:59.101
70.0, 27076.433846525415, -4295.267676742992, 15951.478892741072, -3163.8223724153486, 15373.731002060296, 7756.412953902835, -187500.02235174447, -187500.02235174447, -0.178, -0.774, -0.618, 192.0, 0.0, 0.0, 0.0, 0.0, 0.0, 0.0, 0.0, 0.0, 0.0, 1.677615119105297E9, 0.0, 2023-02-28 12:11:59.105
71.0, 26929.71699592078, -4291.713749374599, 15089.685033522253, -3153.0935350768013, 14931.501738012044, 7384.681091866624, -187500.02235174447, -187500.02235174447, -0.178, -0.774, -0.618, 192.0, 0.0, 0.0, 0.0, 0.0, 0.0, 0.0, 0.0, 0.0, 0.0, 1.6776151191093764E9, 0.0, 2023-02-28 12:11:59.109
72.0, 26919.837524871535, -4291.222010996582, 14906.020749332994, -3156.401593256187, 14832.17058565266, 7400.215554263063, -187500.02235174447, -187500.02235174447, -0.178, -0.774, -0.618, 192.0, 0.0, 0.0, 0.0, 0.0, 0.0, 0.0, 0.0, 0.0, 0.0, 1.6776151191123743E9, 0.0, 2023-02-28 12:11:59.112
73.0, 27071.047076111685, -4290.394996451735, 15735.02459943588, -3164.8952561492038, 15268.16371299788, 7767.857047063952, -187500.02235174447, -187500.02235174447, -0.178, -0.774, -0.618, 192.0, 0.0, 0.0, 0.0, 0.0, 0.0, 0.0, 0.0, 0.0, 0.0, 1.6776151191162858E9, 0.0, 2023-02-28 12:11:59.116
74.0, 27099.098515403097, -4287.869249328286, 16032.436911158195, -3161.140163080712, 15432.046703344191, 7798.501288712179, -187500.02235174447, -187500.02235174447, -0.184, -0.778, -0.624, 192.0, 250.0, 64.0, 231.0, 176.0, 236.0, 128.0, 0.0, 0.0, 0.0, 1.6776151191203184E9, 0.0, 2023-02-28 12:11:59.120
75.0, 26955.734426466755, -4287.288103972448, 15232.847956758495, -3151.5065612204744, 15015.991332053107, 7430.323354044361, -187500.02235174447, -187500.02235174447, -0.184, -0.778, -0.624, 192.0, 0.0, 0.0, 0.0, 0.0, 0.0, 0.0, 0.0, 0.0, 0.0, 1.6776151191243503E9, 0.0, 2023-02-28 12:11:59.124
76.0, 26912.28263524564, -4288.383339450757, 14839.434902600635, -3153.4511629880863, 14804.856753928276, 7357.45666712006, -187500.02235174447, -187500.02235174447, -0.184, -0.778, -0.624, 192.0, 0.0, 0.0, 0.0, 0.0, 0.0, 0.0, 0.0, 0.0, 0.0, 1.6776151191293247E9, 0.0, 2023-02-28 12:11:59.129
77.0, 27054.439729981394, -4292.831336597364, 15576.953062647948, -3164.783497426927, 15183.562360234542, 7709.250773102138, -187500.02235174447, -187500.02235174447, -0.184, -0.778, -0.624, 192.0, 0.0, 0.0, 0.0, 0.0, 0.0, 0.0, 0.0, 0.0, 0.0, 1.6776151191333127E9, 0.0, 2023-02-28 12:11:59.133
78.0, 27135.665969331978, -4297.100519788328, 16084.427068761239, -3166.549285238896, 15446.86590991806, 7834.286431585126, -187500.02235174447, -187500.02235174447, -0.184, -0.778, -0.624, 192.0, 0.0, 0.0, 0.0, 0.0, 0.0, 0.0, 0.0, 0.0, 0.0, 1.6776151191373408E9, 0.0, 2023-02-28 12:11:59.137
79.0, 27006.182313702386, -4296.675836643677, 15397.245037227278, -3156.267482789455, 15086.466382320688, 7492.662369330213, -187500.02235174447, -187500.02235174447, -0.184, -0.778, -0.624, 192.0, 0.0, 0.0, 0.0, 0.0, 0.0, 0.0, 0.0, 0.0, 0.0, 1.6776151191404371E9, 0.0, 2023-02-28 12:11:59.140
80.0, 26926.788917397134, -4294.731234876065, 14819.519498290956, -3153.875846132737, 14786.438916497102, 7322.207966114041, -187500.02235174447, -187500.02235174447, -0.184, -0.778, -0.624, 192.0, 0.0, 0.0, 0.0, 0.0, 0.0, 0.0, 0.0, 0.0, 0.0, 1.6776151191443317E9, 0.0, 2023-02-28 12:11:59.144
81.0, 27031.752709359254, -4294.03833079795, 15415.953447336371, -3163.285930548421, 15092.769574257085, 7639.200405979205, -187500.02235174447, -187500.02235174447, -0.184, -0.778, -0.624, 192.0, 0.0, 0.0, 0.0, 0.0, 0.0, 0.0, 0.0, 0.0, 0.0, 1.6776151191483438E9, 0.0, 2023-02-28 12:11:59.148
82.0, 27127.149954694505, -4291.870211585786, 16090.886722908823, -3164.492924749008, 15450.263375075267, 7859.119219674972, -187500.02235174447, -187500.02235174447, -0.184, -0.778, -0.624, 192.0, 0.0, 0.0, 0.0, 0.0, 0.0, 0.0, 0.0, 0.0, 0.0, 1.677615119152419E9, 0.0, 2023-02-28 12:11:59.152
83.0, 27029.24931398026, -4291.46788018559, 15560.211606050922, -3155.4181165001532, 15178.980252621204, 7558.7117741956445, -187500.02235174447, -187500.02235174447, -0.184, -0.778, -0.624, 192.0, 0.0, 0.0, 0.0, 0.0, 0.0, 0.0, 0.0, 0.0, 0.0, 1.6776151191574223E9, 0.0, 2023-02-28 12:11:59.157
84.0, 26911.142696278417, -4293.859516842308, 14837.624411299756, -3153.0041280989803, 14797.54773349139, 7310.316838063817, -187500.02235174447, -187500.02235174447, -0.178, -0.78, -0.622, 192.0, 250.0, 112.0, 231.0, 160.0, 236.0, 144.0, 0.0, 0.0, 0.0, 1.6776151191613684E9, 0.0, 2023-02-28 12:11:59.161
85.0, 26993.8217990186, -4295.692359887643, 15258.284241948635, -3162.1012880922904, 15010.045768027994, 7565.193780087684, -187500.02235174447, -187500.02235174447, -0.178, -0.78, -0.622, 192.0, 0.0, 0.0, 0.0, 0.0, 0.0, 0.0, 0.0, 0.0, 0.0, 1.6776151191653388E9, 0.0, 2023-02-28 12:11:59.165
86.0, 27117.56105632318, -4296.832298854863, 16053.872234090833, -3166.616340472262, 15426.838746886106, 7856.392306851424, -187500.02235174447, -187500.02235174447, -0.178, -0.78, -0.622, 192.0, 0.0, 0.0, 0.0, 0.0, 0.0, 0.0, 0.0, 0.0, 0.0, 1.6776151191683445E9, 0.0, 2023-02-28 12:11:59.168
87.0, 27036.5806861616, -4296.206450010115, 15715.355064315208, -3157.787401412416, 15254.462093646776, 7621.542527859513, -187500.02235174447, -187500.02235174447, -0.178, -0.78, -0.622, 192.0, 0.0, 0.0, 0.0, 0.0, 0.0, 0.0, 0.0, 0.0, 0.0, 1.6776151191723666E9, 0.0, 2023-02-28 12:11:59.172
88.0, 26910.025109055652, -4292.3619499638025, 14888.675795635678, -3150.299567019888, 14824.950972193596, 7313.44608228756, -187500.02235174447, -187500.02235174447, -0.178, -0.78, -0.622, 192.0, 0.0, 0.0, 0.0, 0.0, 0.0, 0.0, 0.0, 0.0, 0.0, 1.677615119176386E9, 0.0, 2023-02-28 12:11:59.176
89.0, 26973.70522900882, -4288.830374339864, 15109.712196554208, -3156.8039246563826, 14937.29083982597, 7501.044273500953, -187500.02235174447, -187500.02235174447, -0.178, -0.78, -0.622, 192.0, 0.0, 0.0, 0.0, 0.0, 0.0, 0.0, 0.0, 0.0, 0.0, 1.6776151191813917E9, 0.0, 2023-02-28 12:11:59.181
90.0, 27114.252998143795, -4285.343502204836, 15969.896730172246, -3162.011881114469, 15390.539513890686, 7840.589623521522, -187500.02235174447, -187500.02235174447, -0.178, -0.78, -0.622, 192.0, 0.0, 0.0, 0.0, 0.0, 0.0, 0.0, 0.0, 0.0, 0.0, 1.677615119185449E9, 0.0, 2023-02-28 12:11:59.185
91.0, 27071.672924956434, -4280.470821913579, 15850.605470014272, -3153.5405699659077, 15337.297658598145, 7696.465575273702, -187500.02235174447, -187500.02235174447, -0.178, -0.78, -0.622, 192.0, 0.0, 0.0, 0.0, 0.0, 0.0, 0.0, 0.0, 0.0, 0.0, 1.6776151191894212E9, 0.0, 2023-02-28 12:11:59.189
92.0, 26937.89773439142, -4278.2803509569585, 14981.033203725006, -3145.7621628954607, 14882.484362421557, 7342.235129145995, -187500.02235174447, -187500.02235174447, -0.178, -0.78, -0.622, 192.0, 0.0, 0.0, 0.0, 0.0, 0.0, 0.0, 0.0, 0.0, 0.0, 1.6776151191934044E9, 0.0, 2023-02-28 12:11:59.193
93.0, 26962.90933643691, -4281.163725991693, 14982.553122347967, -3151.8641891317593, 14879.489228664546, 7436.5594907473915, -187500.02235174447, -187500.02235174447, -0.178, -0.78, -0.622, 192.0, 0.0, 0.0, 0.0, 0.0, 0.0, 0.0, 0.0, 0.0, 0.0, 1.67761511919645E9, 0.0, 2023-02-28 12:11:59.196
94.0, 27110.296739375204, -4281.8566300698085, 15851.387781070207, -3159.4861339910194, 15333.140234129458, 7804.312742270558, -187500.02235174447, -187500.02235174447, -0.178, -0.782, -0.622, 192.0, 250.0, 112.0, 231.0, 144.0, 236.0, 144.0, 0.0, 0.0, 0.0, 1.6776151192004073E9, 0.0, 2023-02-28 12:11:59.200
95.0, 27106.27342537325, -4281.744871347531, 15960.10666610082, -3154.5463984663966, 15391.500638902264, 7759.609253359945, -187500.02235174447, -187500.02235174447, -0.178, -0.782, -0.622, 192.0, 0.0, 0.0, 0.0, 0.0, 0.0, 0.0, 0.0, 0.0, 0.0, 1.6776151192044458E9, 0.0, 2023-02-28 12:11:59.204
96.0, 26955.153281110917, -4283.5106591595, 15102.090251694948, -3147.7738198964385, 14944.28693584048, 7380.456612164571, -187500.02235174447, -187500.02235174447, -0.178, -0.782, -0.622, 192.0, 0.0, 0.0, 0.0, 0.0, 0.0, 0.0, 0.0, 0.0, 0.0, 1.6776151192104344E9, 0.0, 2023-02-28 12:11:59.210
97.0, 26938.545934980626, -4285.589371393844, 14886.41826944569, -3152.7135554210613, 14827.789643739421, 7378.6237691192355, -187500.02235174447, -187500.02235174447, -0.178, -0.782, -0.622, 192.0, 0.0, 0.0, 0.0, 0.0, 0.0, 0.0, 0.0, 0.0, 0.0, 1.6776151192134087E9, 0.0, 2023-02-28 12:11:59.213
98.0, 27089.867244943052, -4286.2599237275035, 15709.945942157025, -3162.369509025754, 15256.317288436567, 7748.9474712547635, -187500.02235174447, -187500.02235174447, -0.178, -0.782, -0.622, 192.0, 0.0, 0.0, 0.0, 0.0, 0.0, 0.0, 0.0, 0.0, 0.0, 1.6776151192174037E9, 0.0, 2023-02-28 12:11:59.217
99.0, 27134.257809431292, -4286.595199894333, 16042.785768841002, -3160.1566863246785, 15435.2430028013, 7796.132003799917, -187500.02235174447, -187500.02235174447, -0.178, -0.782, -0.622, 192.0, 0.0, 0.0, 0.0, 0.0, 0.0, 0.0, 0.0, 0.0, 0.0, 1.677615119220394E9, 0.0, 2023-02-28 12:11:59.220
100.0, 26992.123066439995, -4286.528144660967, 15250.796407556107, -3150.4336774866197, 15023.099186789894, 7428.669324954668, -187500.02235174447, -187500.02235174447, -0.178, -0.782, -0.622, 192.0, 0.0, 0.0, 0.0, 0.0, 0.0, 0.0, 0.0, 0.0, 0.0, 1.6776151192244103E9, 0.0, 2023-02-28 12:11:59.224
101.0, 26942.47984200476, -4286.0811097718615, 14825.710931505077, -3151.0595263313685, 14794.01615786745, 7339.8211407448225, -187500.02235174447, -187500.02235174447, -0.178, -0.782, -0.622, 192.0, 0.0, 0.0, 0.0, 0.0, 0.0, 0.0, 0.0, 0.0, 0.0, 1.6776151192284975E9, 0.0, 2023-02-28 12:11:59.228
102.0, 27081.910023916964, -4288.539801661945, 15547.828739622682, -3161.967177625558, 15168.385525749389, 7688.173078080783, -187500.02235174447, -187500.02235174447, -0.178, -0.782, -0.622, 192.0, 0.0, 0.0, 0.0, 0.0, 0.0, 0.0, 0.0, 0.0, 0.0, 1.6776151192326252E9, 0.0, 2023-02-28 12:11:59.232
103.0, 27159.33646671015, -4285.365853949292, 16077.699193680191, -3159.5978927132956, 15460.120494380057, 7828.653791982388, -187500.02235174447, -187500.02235174447, -0.178, -0.782, -0.622, 192.0, 0.0, 0.0, 0.0, 0.0, 0.0, 0.0, 0.0, 0.0, 0.0, 1.677615119236458E9, 0.0, 2023-02-28 12:11:59.236
104.0, 27025.225999978305, -4282.862458570296, 15403.302359974667, -3148.690241419106, 15115.344836156946, 7489.488421617559, -187500.02235174447, -187500.02235174447, -0.176, -0.78, -0.62, 192.0, 250.0, 128.0, 231.0, 160.0, 236.0, 160.0, 0.0, 0.0, 0.0, 1.6776151192406707E9, 0.0, 2023-02-28 12:11:59.240
105.0, 26922.497382461715, -4287.690435372643, 14802.68863471611, -3149.0255175859356, 14791.78098342192, 7309.042788629865, -187500.02235174447, -187500.02235174447, -0.176, -0.78, -0.62, 192.0, 0.0, 0.0, 0.0, 0.0, 0.0, 0.0, 0.0, 0.0, 0.0, 1.6776151192455688E9, 0.0, 2023-02-28 12:11:59.245
106.0, 27042.079215297606, -4285.924647560674, 15383.051679498158, -3159.5755409688404, 15084.722946253176, 7610.232545165128, -187500.02235174447, -187500.02235174447, -0.176, -0.78, -0.62, 192.0, 0.0, 0.0, 0.0, 0.0, 0.0, 0.0, 0.0, 0.0, 0.0, 1.6776151192484865E9, 0.0, 2023-02-28 12:11:59.248
107.0, 27152.697998606924, -4285.298798715925, 16081.096658837398, -3162.4589160035753, 15448.050552374192, 7840.589623521522, -187500.02235174447, -187500.02235174447, -0.176, -0.78, -0.62, 192.0, 0.0, 0.0, 0.0, 0.0, 0.0, 0.0, 0.0, 0.0, 0.0, 1.6776151192524955E9, 0.0, 2023-02-28 12:11:59.252
108.0, 27052.226907280317, -4286.70695861661, 15568.682917199483, -3151.52891296493, 15189.373813792923, 7558.152980584262, -187500.02235174447, -187500.02235174447, -0.176, -0.78, -0.62, 192.0, 0.0, 0.0, 0.0, 0.0, 0.0, 0.0, 0.0, 0.0, 0.0, 1.677615119256518E9, 0.0, 2023-02-28 12:11:59.256
109.0, 26945.542030995137, -4284.516487659989, 14821.419396569658, -3147.0585640738686, 14802.912152160663, 7300.951457137044, -187500.02235174447, -187500.02235174447, -0.176, -0.78, -0.62, 192.0, 0.0, 0.0, 0.0, 0.0, 0.0, 0.0, 0.0, 0.0, 0.0, 1.6776151192605212E9, 0.0, 2023-02-28 12:11:59.260
110.0, 27036.893610583975, -4281.744871347531, 15216.978218195227, -3156.2227793005445, 14998.333453933414, 7541.277413520505, -187500.02235174447, -187500.02235174447, -0.176, -0.78, -0.62, 192.0, 0.0, 0.0, 0.0, 0.0, 0.0, 0.0, 0.0, 0.0, 0.0, 1.6776151192644937E9, 0.0, 2023-02-28 12:11:59.264
111.0, 27165.684362135456, -4279.08501375735, 16027.296009933474, -3160.357852024776, 15418.076863059625, 7836.83453045303, -187500.02235174447, -187500.02235174447, -0.176, -0.78, -0.62, 192.0, 0.0, 0.0, 0.0, 0.0, 0.0, 0.0, 0.0, 0.0, 0.0, 1.6776151192684827E9, 0.0, 2023-02-28 12:11:59.268
112.0, 27095.008146167773, -4281.364891691791, 15718.618419005683, -3154.144067066201, 15259.357125682489, 7605.181050918228, -187500.02235174447, -187500.02235174447, -0.176, -0.78, -0.62, 192.0, 0.0, 0.0, 0.0, 0.0, 0.0, 0.0, 0.0, 0.0, 0.0, 1.677615119273568E9, 0.0, 2023-02-28 12:11:59.273
113.0, 26971.023019674187, -4284.024749281973, 14878.997490286529, -3149.00316584148, 14815.563239522367, 7292.167221566108, -187500.02235174447, -187500.02235174447, -0.176, -0.78, -0.62, 192.0, 0.0, 0.0, 0.0, 0.0, 0.0, 0.0, 0.0, 0.0, 0.0, 1.677615119276536E9, 0.0, 2023-02-28 12:11:59.276
114.0, 27027.416470934924, -4281.722519603076, 15065.992184399627, -3154.6134536997624, 14902.6679876647, 7470.467087086093, -187500.02235174447, -187500.02235174447, -0.184, -0.774, -0.616, 192.0, 250.0, 64.0, 231.0, 208.0, 236.0, 192.0, 0.0, 0.0, 0.0, 1.6776151192805014E9, 0.0, 2023-02-28 12:11:59.280
115.0, 27196.28390029477, -4277.900371301219, 15933.373979732274, -3161.050756102891, 15353.681487283886, 7808.805442906076, -187500.02235174447, -187500.02235174447, -0.184, -0.774, -0.616, 192.0, 0.0, 0.0, 0.0, 0.0, 0.0, 0.0, 0.0, 0.0, 0.0, 1.6776151192845805E9, 0.0, 2023-02-28 12:11:59.284
116.0, 27160.31994346618, -4275.866362555786, 15841.173033854133, -3152.914721121159, 15312.822498419584, 7672.638615684345, -187500.02235174447, -187500.02235174447, -0.184, -0.774, -0.616, 192.0, 0.0, 0.0, 0.0, 0.0, 0.0, 0.0, 0.0, 0.0, 0.0, 1.6776151192884996E9, 0.0, 2023-02-28 12:11:59.288
117.0, 26988.747953027243, -4277.743909090032, 14962.078924426905, -3144.398706483687, 14856.489283620034, 7317.581155011792, -187500.02235174447, -187500.02235174447, -0.184, -0.774, -0.616, 192.0, 0.0, 0.0, 0.0, 0.0, 0.0, 0.0, 0.0, 0.0, 0.0, 1.6776151192925727E9, 0.0, 2023-02-28 12:11:59.292
118.0, 27003.857732279033, -4278.74973759052, 14931.904069412241, -3148.6678896746507, 14835.568050809867, 7407.613981677769, -187500.02235174447, -187500.02235174447, -0.184, -0.774, -0.616, 192.0, 0.0, 0.0, 0.0, 0.0, 0.0, 0.0, 0.0, 0.0, 0.0, 1.6776151192964995E9, 0.0, 2023-02-28 12:11:59.296
119.0, 27183.85633037762, -4272.625359609766, 15798.41414671113, -3153.71938392155, 15288.59320743003, 7783.458564693758, -187500.02235174447, -187500.02235174447, -0.184, -0.774, -0.616, 192.0, 0.0, 0.0, 0.0, 0.0, 0.0, 0.0, 0.0, 0.0, 0.0, 1.677615119301532E9, 0.0, 2023-02-28 12:11:59.301
120.0, 27171.47346394938, -4274.122926488272, 15939.766578646491, -3149.00316584148, 15368.746563046761, 7738.978593227696, -187500.02235174447, -187500.02235174447, -0.184, -0.774, -0.616, 192.0, 0.0, 0.0, 0.0, 0.0, 0.0, 0.0, 0.0, 0.0, 0.0, 1.6776151193045745E9, 0.0, 2023-02-28 12:11:59.304
121.0, 27003.120124712008, -4268.937321774641, 15082.018385174082, -3137.6484796581844, 14922.784557674475, 7362.284643922406, -187500.02235174447, -187500.02235174447, -0.184, -0.774, -0.616, 192.0, 0.0, 0.0, 0.0, 0.0, 0.0, 0.0, 0.0, 0.0, 0.0, 1.677615119308589E9, 0.0, 2023-02-28 12:11:59.308
122.0, 26996.258139164227, -4268.5573421189, 14834.718684520565, -3142.7670291384497, 14791.378652021725, 7338.837663988789, -187500.02235174447, -187500.02235174447, -0.184, -0.774, -0.616, 192.0, 0.0, 0.0, 0.0, 0.0, 0.0, 0.0, 0.0, 0.0, 0.0, 1.677615119312504E9, 0.0, 2023-02-28 12:11:59.312
123.0, 27155.983705041854, -4274.033519510451, 15649.216252471955, -3154.4793432330302, 15209.87036345844, 7714.950467938241, -187500.02235174447, -187500.02235174447, -0.184, -0.774, -0.616, 192.0, 0.0, 0.0, 0.0, 0.0, 0.0, 0.0, 0.0, 0.0, 0.0, 1.6776151193165183E9, 0.0, 2023-02-28 12:11:59.316
124.0, 27180.436513475957, -4276.626321867267, 16011.560381836938, -3152.780610654427, 15397.647368627475, 7777.647111135378, -187500.02235174447, -187500.02235174447, -0.178, -0.772, -0.618, 192.0, 250.0, 112.0, 231.0, 224.0, 236.0, 176.0, 0.0, 0.0, 0.0, 1.6776151193206153E9, 0.0, 2023-02-28 12:11:59.320
125.0, 27056.049055582174, -4279.576752135366, 15229.226974156736, -3143.035250071913, 14990.622102096333, 7408.843327622811, -187500.02235174447, -187500.02235174447, -0.178, -0.772, -0.618, 192.0, 0.0, 0.0, 0.0, 0.0, 0.0, 0.0, 0.0, 0.0, 0.0, 1.6776151193245769E9, 0.0, 2023-02-28 12:11:59.324
126.0, 26979.583737800567, -4279.80026957992, 14773.765477390943, -3143.079953560824, 14747.032791022397, 7303.454852516038, -187500.02235174447, -187500.02235174447, -0.178, -0.772, -0.618, 192.0, 0.0, 0.0, 0.0, 0.0, 0.0, 0.0, 0.0, 0.0, 0.0, 1.6776151193295946E9, 0.0, 2023-02-28 12:11:59.329
127.0, 27108.7991724967, -4281.968388792085, 15480.237064389834, -3154.144067066201, 15108.862830264907, 7656.411249209792, -187500.02235174447, -187500.02235174447, -0.178, -0.772, -0.618, 192.0, 0.0, 0.0, 0.0, 0.0, 0.0, 0.0, 0.0, 0.0, 0.0, 1.677615119332594E9, 0.0, 2023-02-28 12:11:59.332
128.0, 27155.290800963736, -4280.560228891401, 16044.17157699723, -3156.200427556089, 15412.108947290058, 7799.440061979301, -187500.02235174447, -187500.02235174447, -0.178, -0.772, -0.618, 192.0, 0.0, 0.0, 0.0, 0.0, 0.0, 0.0, 0.0, 0.0, 0.0, 1.677615119336536E9, 0.0, 2023-02-28 12:11:59.336
129.0, 27028.19878199086, -4284.963522549096, 15389.936016790392, -3146.8126948848603, 15072.854169947406, 7461.548741048425, -187500.02235174447, -187500.02235174447, -0.178, -0.772, -0.618, 192.0, 0.0, 0.0, 0.0, 0.0, 0.0, 0.0, 0.0, 0.0, 0.0, 1.6776151193407168E9, 0.0, 2023-02-28 12:11:59.340
130.0, 26983.897624480443, -4284.985874293551, 14759.39330570618, -3144.711630906061, 14736.929802528597, 7274.576398679781, -187500.02235174447, -187500.02235174447, -0.178, -0.772, -0.618, 192.0, 0.0, 0.0, 0.0, 0.0, 0.0, 0.0, 0.0, 0.0, 0.0, 1.6776151193446224E9, 0.0, 2023-02-28 12:11:59.344
131.0, 27117.203428411893, -4284.874115571274, 15311.45904200781, -3154.3452327662985, 15015.879573330829, 7580.504725039569, -187500.02235174447, -187500.02235174447, -0.178, -0.772, -0.618, 192.0, 0.0, 0.0, 0.0, 0.0, 0.0, 0.0, 0.0, 0.0, 0.0, 1.6776151193485432E9, 0.0, 2023-02-28 12:11:59.348
132.0, 27168.18775751445, -4281.2084294806045, 16029.844108801379, -3155.395764755698, 15395.211028481846, 7821.233012823226, -187500.02235174447, -187500.02235174447, -0.178, -0.772, -0.618, 192.0, 0.0, 0.0, 0.0, 0.0, 0.0, 0.0, 0.0, 0.0, 0.0, 1.677615119352576E9, 0.0, 2023-02-28 12:11:59.352
133.0, 27065.25797429776, -4275.709900344598, 15543.783073876271, -3143.974023339036, 15152.202862763746, 7532.023791316008, -187500.02235174447, -187500.02235174447, -0.178, -0.772, -0.618, 192.0, 0.0, 0.0, 0.0, 0.0, 0.0, 0.0, 0.0, 0.0, 0.0, 1.6776151193576136E9, 0.0, 2023-02-28 12:11:59.357
134.0, 26952.247554331727, -4275.374624177769, 14779.465172227046, -3139.0566395588685, 14749.49148291248, 7264.316947974796, -187500.02235174447, -187500.02235174447, -0.178, -0.772, -0.618, 192.0, 0.0, 0.0, 0.0, 0.0, 0.0, 0.0, 0.0, 0.0, 0.0, 1.677615119360587E9, 0.0, 2023-02-28 12:11:59.360
135.0, 27067.135520832006, -4272.51360088749, 15147.978383061694, -3148.0196890854468, 14932.731083957087, 7500.485479889569, -187500.02235174447, -187500.02235174447, -0.178, -0.774, -0.624, 192.0, 250.0, 112.0, 231.0, 208.0, 236.0, 128.0, 0.0, 0.0, 0.0, 1.6776151193656676E9, 0.0, 2023-02-28 12:11:59.365
136.0, 27200.24015906336, -4269.339653174836, 15973.987099407566, -3153.2947007768994, 15368.254824668746, 7806.92789637183, -187500.02235174447, -187500.02235174447, -0.178, -0.774, -0.624, 192.0, 0.0, 0.0, 0.0, 0.0, 0.0, 0.0, 0.0, 0.0, 0.0, 1.6776151193686268E9, 0.0, 2023-02-28 12:11:59.368
137.0, 27110.632015542033, -4271.239551453537, 15693.785630915838, -3144.085782061313, 15229.986933468215, 7604.376388117837, -187500.02235174447, -187500.02235174447, -0.178, -0.774, -0.624, 192.0, 0.0, 0.0, 0.0, 0.0, 0.0, 0.0, 0.0, 0.0, 0.0, 1.6776151193726144E9, 0.0, 2023-02-28 12:11:59.372
138.0, 26953.05221713212, -4266.657443840199, 14844.017010213973, -3136.0838575463126, 14781.87916062822, 7281.39368073865, -187500.02235174447, -187500.02235174447, -0.178, -0.774, -0.624, 192.0, 0.0, 0.0, 0.0, 0.0, 0.0, 0.0, 0.0, 0.0, 0.0, 1.6776151193766532E9, 0.0, 2023-02-28 12:11:59.376
139.0, 27022.230866221296, -4263.975234505562, 15002.557933635466, -3144.130485550223, 14858.74680981002, 7438.347630303816, -187500.02235174447, -187500.02235174447, -0.178, -0.774, -0.624, 192.0, 0.0, 0.0, 0.0, 0.0, 0.0, 0.0, 0.0, 0.0, 0.0, 1.6776151193806043E9, 0.0, 2023-02-28 12:11:59.380
140.0, 27200.508379996823, -4265.562208361889, 15880.467400606562, -3152.8923693767038, 15315.974094387782, 7787.325416484526, -187500.02235174447, -187500.02235174447, -0.178, -0.774, -0.624, 192.0, 0.0, 0.0, 0.0, 0.0, 0.0, 0.0, 0.0, 0.0, 0.0, 1.6776151193856282E9, 0.0, 2023-02-28 12:11:59.385
141.0, 27198.63083346258, -4266.031594995451, 15825.325647035319, -3146.030383828924, 15294.963454599794, 7663.742621391132, -187500.02235174447, -187500.02235174447, -0.178, -0.774, -0.624, 192.0, 0.0, 0.0, 0.0, 0.0, 0.0, 0.0, 0.0, 0.0, 0.0, 1.6776151193885908E9, 0.0, 2023-02-28 12:11:59.388
142.0, 27029.696348869365, -4264.221103694571, 14947.125607386304, -3137.782590124916, 14835.545699065413, 7304.30421880534, -187500.02235174447, -187500.02235174447, -0.178, -0.774, -0.624, 192.0, 0.0, 0.0, 0.0, 0.0, 0.0, 0.0, 0.0, 0.0, 0.0, 1.677615119392576E9, 0.0, 2023-02-28 12:11:59.392
