%OpenBCI Raw EEG Data
%Number of channels = 8
%Sample Rate = 250 Hz
%Board = OpenBCI_GUI$BoardCytonSerial
Sample Index, EXG Channel 0, EXG Channel 1, EXG Channel 2, EXG Channel 3, EXG Channel 4, EXG Channel 5, EXG Channel 6, EXG Channel 7, Accel Channel 0, Accel Channel 1, Accel Channel 2, Other, Other, Other, Other, Other, Other, Other, Analog Channel 0, Analog Channel 1, Analog Channel 2, Timestamp, Other, Timestamp (Formatted)
231.0, 26917.356481236995, -4401.594925116888, 16706.900800097086, -3371.1348022383218, 15218.25226762918, 7374.533399883914, -187500.02235174447, -187500.02235174447, 0.0, 0.0, 0.0, 192.0, 0.0, 0.0, 0.0, 0.0, 0.0, 0.0, 0.0, 0.0, 0.0, 1.6776159762572787E9, 0.0, 2023-02-28 12:26:16.257
232.0, 26903.99013805272, -4402.265477450547, 16655.514139594336, -3369.033738259523, 15190.267883571136, 7338.770608755423, -187500.02235174447, -187500.02235174447, 0.0, 0.0, 0.0, 192.0, 0.0, 0.0, 0.0, 0.0, 0.0, 0.0, 0.0, 0.0, 0.0, 1.6776159762573185E9, 0.0, 2023-02-28 12:26:16.257
233.0, 26878.151521462387, -4402.041960005994, 16497.867285951055, -3366.7538603250814, 15104.660702307308, 7279.9184656046, -187500.02235174447, -187500.02235174447, 0.0, 0.0, 0.0, 192.0, 0.0, 0.0, 0.0, 0.0, 0.0, 0.0, 0.0, 0.0, 0.0, 1.6776159762573345E9, 0.0, 2023-02-28 12:26:16.257
0.0, 0.0, 0.0, 0.0, 0.0, 0.0, 0.0, 0.0, 0.0, -0.178, -0.782, -0.612, 192.0, 250.0, 112.0, 231.0, 144.0, 236.0, 224.0, 0.0, 0.0, 0.0, 1.6776159763543627E9, 0.0, 2023-02-28 12:26:16.354
1.0, 25981.600699615563, -4494.399368095323, 16654.932994238497, -3333.0697814309337, 15121.759786815619, 7536.024753573508, -187500.02235174447, -187500.02235174447, -0.178, -0.782, -0.612, 192.0, 0.0, 0.0, 0.0, 0.0, 0.0, 0.0, 0.0, 0.0, 0.0, 1.6776159763673358E9, 0.0, 2023-02-28 12:26:16.367
2.0, 26007.573426672632, -4494.756996006608, 16796.732461062966, -3332.8015604974703, 15194.179438850813, 7571.765192957544, -187500.02235174447, -187500.02235174447, -0.178, -0.782, -0.612, 192.0, 0.0, 0.0, 0.0, 0.0, 0.0, 0.0, 0.0, 0.0, 0.0, 1.6776159763723695E9, 0.0, 2023-02-28 12:26:16.372
3.0, 25979.924318781417, -4492.2312488831585, 16555.244213967828, -3327.5041970615625, 15069.635518745843, 7451.915139188188, -187500.02235174447, -187500.02235174447, -0.178, -0.782, -0.612, 192.0, 0.0, 0.0, 0.0, 0.0, 0.0, 0.0, 0.0, 0.0, 0.0, 1.6776159763763678E9, 0.0, 2023-02-28 12:26:16.376
4.0, 25947.760158510227, -4491.9406762052395, 16386.846171241545, -3327.2806796170094, 14981.815514780941, 7404.551792687392, -187500.02235174447, -187500.02235174447, -0.178, -0.782, -0.612, 192.0, 0.0, 0.0, 0.0, 0.0, 0.0, 0.0, 0.0, 0.0, 0.0, 1.6776159763803651E9, 0.0, 2023-02-28 12:26:16.380
5.0, 25984.685240350394, -4492.946504705728, 16601.91465639051, -3331.7957319969814, 15092.970739957183, 7513.717712607112, -187500.02235174447, -187500.02235174447, -0.178, -0.782, -0.612, 192.0, 0.0, 0.0, 0.0, 0.0, 0.0, 0.0, 0.0, 0.0, 0.0, 1.677615976384446E9, 0.0, 2023-02-28 12:26:16.384
6.0, 26020.693900667895, -4491.873620971874, 16801.783955309864, -3332.1757116527215, 15197.15222086337, 7576.861390693354, -187500.02235174447, -187500.02235174447, -0.178, -0.782, -0.612, 192.0, 0.0, 0.0, 0.0, 0.0, 0.0, 0.0, 0.0, 0.0, 0.0, 1.6776159763874347E9, 0.0, 2023-02-28 12:26:16.387
7.0, 25986.786304329195, -4490.800737238019, 16608.48606926037, -3328.04063892849, 15101.03971970555, 7471.115287675297, -187500.02235174447, -187500.02235174447, -0.178, -0.782, -0.612, 192.0, 0.0, 0.0, 0.0, 0.0, 0.0, 0.0, 0.0, 0.0, 0.0, 1.6776159763914003E9, 0.0, 2023-02-28 12:26:16.391
8.0, 25954.979771969294, -4488.1855831367475, 16389.058993942617, -3326.744237750082, 14988.565741606444, 7394.091176282308, -187500.02235174447, -187500.02235174447, -0.176, -0.788, -0.614, 192.0, 250.0, 128.0, 231.0, 96.0, 236.0, 208.0, 0.0, 0.0, 0.0, 1.6776159763954132E9, 0.0, 2023-02-28 12:26:16.395
9.0, 25984.4840746503, -4489.705501759709, 16548.963373775885, -3331.192234896688, 15068.048544889516, 7486.537991349458, -187500.02235174447, -187500.02235174447, -0.176, -0.788, -0.614, 192.0, 0.0, 0.0, 0.0, 0.0, 0.0, 0.0, 0.0, 0.0, 0.0, 1.677615976399464E9, 0.0, 2023-02-28 12:26:16.399
10.0, 26029.031101349727, -4491.739510505141, 16794.07260347278, -3333.5391680644952, 15194.648825484375, 7574.5591610144575, -187500.02235174447, -187500.02235174447, -0.176, -0.788, -0.614, 192.0, 0.0, 0.0, 0.0, 0.0, 0.0, 0.0, 0.0, 0.0, 0.0, 1.6776159764053977E9, 0.0, 2023-02-28 12:26:16.405
11.0, 26002.72309812583, -4490.577219793466, 16662.39847688657, -3329.672316273727, 15127.861813051917, 7490.248380929039, -187500.02235174447, -187500.02235174447, -0.176, -0.788, -0.614, 192.0, 0.0, 0.0, 0.0, 0.0, 0.0, 0.0, 0.0, 0.0, 0.0, 1.6776159764093752E9, 0.0, 2023-02-28 12:26:16.409
12.0, 25953.303391135145, -4489.817260481985, 16406.24748542875, -3327.9512319506684, 14994.488953887101, 7393.867658837755, -187500.02235174447, -187500.02235174447, -0.176, -0.788, -0.614, 192.0, 0.0, 0.0, 0.0, 0.0, 0.0, 0.0, 0.0, 0.0, 0.0, 1.6776159764124744E9, 0.0, 2023-02-28 12:26:16.412
13.0, 25971.2294901883, -4492.790042494541, 16500.080108652128, -3331.616918041339, 15039.237146286625, 7461.638148026246, -187500.02235174447, -187500.02235174447, -0.176, -0.788, -0.614, 192.0, 0.0, 0.0, 0.0, 0.0, 0.0, 0.0, 0.0, 0.0, 0.0, 1.6776159764154243E9, 0.0, 2023-02-28 12:26:16.415
14.0, 26027.62294144904, -4493.4605948282, 16772.302004373312, -3333.9862029536016, 15179.919025888328, 7568.144210355785, -187500.02235174447, -187500.02235174447, -0.176, -0.788, -0.614, 192.0, 0.0, 0.0, 0.0, 0.0, 0.0, 0.0, 0.0, 0.0, 0.0, 1.6776159764195838E9, 0.0, 2023-02-28 12:26:16.419
15.0, 26020.62684543453, -4489.951370948716, 16708.107794297674, -3329.337040106898, 15154.460388953734, 7511.214317228118, -187500.02235174447, -187500.02235174447, -0.176, -0.788, -0.614, 192.0, 0.0, 0.0, 0.0, 0.0, 0.0, 0.0, 0.0, 0.0, 0.0, 1.6776159764234943E9, 0.0, 2023-02-28 12:26:16.423
16.0, 25968.94961225386, -4486.956237191705, 16428.86745081752, -3325.492540060585, 15012.30329421798, 7402.204859519585, -187500.02235174447, -187500.02235174447, -0.176, -0.788, -0.614, 192.0, 0.0, 0.0, 0.0, 0.0, 0.0, 0.0, 0.0, 0.0, 0.0, 1.6776159764274924E9, 0.0, 2023-02-28 12:26:16.427
17.0, 25977.398571657966, -4485.793946480029, 16451.286250506193, -3328.4429703286855, 15020.30521873298, 7441.7227437165675, -187500.02235174447, -187500.02235174447, -0.176, -0.788, -0.614, 192.0, 0.0, 0.0, 0.0, 0.0, 0.0, 0.0, 0.0, 0.0, 0.0, 1.6776159764324346E9, 0.0, 2023-02-28 12:26:16.432
18.0, 26024.33723501411, -4486.464498813689, 16737.299172556304, -3332.1757116527215, 15162.28349951309, 7561.505742252558, -187500.02235174447, -187500.02235174447, -0.17200000000000001, -0.788, -0.616, 192.0, 250.0, 160.0, 231.0, 96.0, 236.0, 192.0, 0.0, 0.0, 0.0, 1.6776159764363844E9, 0.0, 2023-02-28 12:26:16.436
19.0, 26018.1905052889, -4486.822126724974, 16747.715085472475, -3328.979412195613, 15170.263072283635, 7537.567023940925, -187500.02235174447, -187500.02235174447, -0.17200000000000001, -0.788, -0.616, 192.0, 0.0, 0.0, 0.0, 0.0, 0.0, 0.0, 0.0, 0.0, 0.0, 1.677615976439384E9, 0.0, 2023-02-28 12:26:16.439
20.0, 25970.178958198903, -4485.83864996894, 16464.429076245913, -3324.6208220268277, 15027.815404869963, 7411.234964279529, -187500.02235174447, -187500.02235174447, -0.17200000000000001, -0.788, -0.616, 192.0, 0.0, 0.0, 0.0, 0.0, 0.0, 0.0, 0.0, 0.0, 0.0, 1.677615976443476E9, 0.0, 2023-02-28 12:26:16.443
21.0, 25968.346115153567, -4487.3585685919015, 16414.987017510775, -3327.2136243836435, 15000.30040744548, 7418.968667861065, -187500.02235174447, -187500.02235174447, -0.17200000000000001, -0.788, -0.616, 192.0, 0.0, 0.0, 0.0, 0.0, 0.0, 0.0, 0.0, 0.0, 0.0, 1.6776159764473877E9, 0.0, 2023-02-28 12:26:16.447
22.0, 26022.23617103531, -4491.247772127124, 16692.819201090242, -3332.846263986381, 15140.624659135898, 7541.903262365254, -187500.02235174447, -187500.02235174447, -0.17200000000000001, -0.788, -0.616, 192.0, 0.0, 0.0, 0.0, 0.0, 0.0, 0.0, 0.0, 0.0, 0.0, 1.677615976451508E9, 0.0, 2023-02-28 12:26:16.451
23.0, 26029.947522872393, -4492.343007605435, 16778.985175965452, -3332.354525608364, 15186.021052124626, 7550.084000835896, -187500.02235174447, -187500.02235174447, -0.17200000000000001, -0.788, -0.616, 192.0, 0.0, 0.0, 0.0, 0.0, 0.0, 0.0, 0.0, 0.0, 0.0, 1.6776159764554853E9, 0.0, 2023-02-28 12:26:16.455
24.0, 25982.226548460312, -4491.493641316133, 16512.395919847004, -3328.1747493952216, 15050.658887703286, 7427.37292377626, -187500.02235174447, -187500.02235174447, -0.17200000000000001, -0.788, -0.616, 192.0, 0.0, 0.0, 0.0, 0.0, 0.0, 0.0, 0.0, 0.0, 0.0, 1.6776159764604557E9, 0.0, 2023-02-28 12:26:16.460
25.0, 25970.447179132367, -4493.147670405826, 16395.96568297931, -3330.1193511628335, 14987.58226485041, 7406.831670621833, -187500.02235174447, -187500.02235174447, -0.17200000000000001, -0.788, -0.616, 192.0, 0.0, 0.0, 0.0, 0.0, 0.0, 0.0, 0.0, 0.0, 0.0, 1.6776159764644437E9, 0.0, 2023-02-28 12:26:16.464
26.0, 26011.86496160805, -4493.88527797285, 16646.752255767853, -3334.1203134203333, 15114.540173356554, 7528.849843603354, -187500.02235174447, -187500.02235174447, -0.17200000000000001, -0.788, -0.616, 192.0, 0.0, 0.0, 0.0, 0.0, 0.0, 0.0, 0.0, 0.0, 0.0, 1.67761597646748E9, 0.0, 2023-02-28 12:26:16.467
27.0, 26029.612246705565, -4492.767690750085, 16796.643054085143, -3332.712153519649, 15192.592464994486, 7568.725355711622, -187500.02235174447, -187500.02235174447, -0.17200000000000001, -0.788, -0.616, 192.0, 0.0, 0.0, 0.0, 0.0, 0.0, 0.0, 0.0, 0.0, 0.0, 1.6776159764714916E9, 0.0, 2023-02-28 12:26:16.471
28.0, 25983.098266494068, -4489.1243564038705, 16562.687344871443, -3327.101865661367, 15073.994108914627, 7455.558473534403, -187500.02235174447, -187500.02235174447, -0.17400000000000002, -0.794, -0.614, 192.0, 250.0, 144.0, 231.0, 48.0, 236.0, 208.0, 0.0, 0.0, 0.0, 1.6776159764754612E9, 0.0, 2023-02-28 12:26:16.475
29.0, 25959.047789460157, -4487.26916161408, 16386.130915418973, -3325.8278162274146, 14981.837866525397, 7407.6810369111345, -187500.02235174447, -187500.02235174447, -0.17400000000000002, -0.794, -0.614, 192.0, 0.0, 0.0, 0.0, 0.0, 0.0, 0.0, 0.0, 0.0, 0.0, 1.6776159764815187E9, 0.0, 2023-02-28 12:26:16.481
30.0, 25996.77753410072, -4489.169059892781, 16593.95743536442, -3330.9240139632243, 15087.807486988007, 7516.131701008285, -187500.02235174447, -187500.02235174447, -0.17400000000000002, -0.794, -0.614, 192.0, 0.0, 0.0, 0.0, 0.0, 0.0, 0.0, 0.0, 0.0, 0.0, 1.6776159764844773E9, 0.0, 2023-02-28 12:26:16.484
31.0, 26029.835764150117, -4489.996074437628, 16802.27569368788, -3332.063952930445, 15196.4369650408, 7584.393928574793, -187500.02235174447, -187500.02235174447, -0.17400000000000002, -0.794, -0.614, 192.0, 0.0, 0.0, 0.0, 0.0, 0.0, 0.0, 0.0, 0.0, 0.0, 1.6776159764885907E9, 0.0, 2023-02-28 12:26:16.488
32.0, 25989.62497587502, -4490.577219793466, 16618.499650776346, -3328.375915095319, 15105.21949591869, 7478.804287767922, -187500.02235174447, -187500.02235174447, -0.17400000000000002, -0.794, -0.614, 192.0, 0.0, 0.0, 0.0, 0.0, 0.0, 0.0, 0.0, 0.0, 0.0, 1.677615976493507E9, 0.0, 2023-02-28 12:26:16.493
33.0, 25957.885498748485, -4487.470327314178, 16391.182409665875, -3326.7889412389927, 14988.811610795452, 7398.069786795353, -187500.02235174447, -187500.02235174447, -0.17400000000000002, -0.794, -0.614, 192.0, 0.0, 0.0, 0.0, 0.0, 0.0, 0.0, 0.0, 0.0, 0.0, 1.6776159764975138E9, 0.0, 2023-02-28 12:26:16.497
34.0, 25992.597757887575, -4486.933885447251, 16540.715580071876, -3330.5440343074843, 15060.784227941542, 7488.48259311707, -187500.02235174447, -187500.02235174447, -0.17400000000000002, -0.794, -0.614, 192.0, 0.0, 0.0, 0.0, 0.0, 0.0, 0.0, 0.0, 0.0, 0.0, 1.6776159765004904E9, 0.0, 2023-02-28 12:26:16.500
35.0, 26030.193392061403, -4489.4149290817895, 16790.161048193106, -3332.6674500307386, 15190.379642293412, 7578.716585483145, -187500.02235174447, -187500.02235174447, -0.17400000000000002, -0.794, -0.614, 192.0, 0.0, 0.0, 0.0, 0.0, 0.0, 0.0, 0.0, 0.0, 0.0, 1.6776159765035236E9, 0.0, 2023-02-28 12:26:16.503
36.0, 25998.118638768035, -4490.957199449205, 16667.315860666735, -3329.2699848735315, 15129.605249119431, 7498.607933355324, -187500.02235174447, -187500.02235174447, -0.17400000000000002, -0.794, -0.614, 192.0, 0.0, 0.0, 0.0, 0.0, 0.0, 0.0, 0.0, 0.0, 0.0, 1.6776159765074885E9, 0.0, 2023-02-28 12:26:16.507
37.0, 25957.058484203637, -4491.27012387158, 16406.850982529042, -3326.9454034501796, 14992.231427697114, 7401.467251952559, -187500.02235174447, -187500.02235174447, -0.17400000000000002, -0.794, -0.614, 192.0, 0.0, 0.0, 0.0, 0.0, 0.0, 0.0, 0.0, 0.0, 0.0, 1.6776159765114896E9, 0.0, 2023-02-28 12:26:16.511
38.0, 25978.314993180633, -4492.968856450183, 16490.178285858427, -3330.7228482631267, 15032.509271205578, 7462.219293382084, -187500.02235174447, -187500.02235174447, -0.17400000000000002, -0.792, -0.614, 192.0, 250.0, 144.0, 231.0, 64.0, 236.0, 208.0, 0.0, 0.0, 0.0, 1.6776159765165255E9, 0.0, 2023-02-28 12:26:16.516
39.0, 26023.66668268045, -4496.455728585212, 16765.17179789207, -3334.1426651647885, 15171.71593567323, 7573.843905191888, -187500.02235174447, -187500.02235174447, -0.17400000000000002, -0.792, -0.614, 192.0, 0.0, 0.0, 0.0, 0.0, 0.0, 0.0, 0.0, 0.0, 0.0, 1.6776159765204687E9, 0.0, 2023-02-28 12:26:16.520
40.0, 25999.124467268524, -4498.199164652725, 16711.415852477057, -3331.5945662968834, 15144.782083604585, 7519.596221398858, -187500.02235174447, -187500.02235174447, -0.17400000000000002, -0.792, -0.614, 192.0, 0.0, 0.0, 0.0, 0.0, 0.0, 0.0, 0.0, 0.0, 0.0, 1.6776159765234916E9, 0.0, 2023-02-28 12:26:16.523
41.0, 25953.392798112967, -4497.305094874513, 16431.281439218696, -3328.5547290509617, 15001.552105134977, 7402.964818831065, -187500.02235174447, -187500.02235174447, -0.17400000000000002, -0.792, -0.614, 192.0, 0.0, 0.0, 0.0, 0.0, 0.0, 0.0, 0.0, 0.0, 0.0, 1.6776159765275915E9, 0.0, 2023-02-28 12:26:16.527
42.0, 25973.62112684502, -4496.969818707683, 16442.189090512882, -3331.259290130054, 15005.374253436836, 7437.3194500588725, -187500.02235174447, -187500.02235174447, -0.17400000000000002, -0.792, -0.614, 192.0, 0.0, 0.0, 0.0, 0.0, 0.0, 0.0, 0.0, 0.0, 0.0, 1.677615976531564E9, 0.0, 2023-02-28 12:26:16.531
43.0, 26017.564656444152, -4497.84153674144, 16727.866736396165, -3335.4167145987412, 15153.365153475423, 7557.661242206245, -187500.02235174447, -187500.02235174447, -0.17400000000000002, -0.792, -0.614, 192.0, 0.0, 0.0, 0.0, 0.0, 0.0, 0.0, 0.0, 0.0, 0.0, 1.6776159765355227E9, 0.0, 2023-02-28 12:26:16.535
44.0, 26001.180827758413, -4495.427548340267, 16749.614983751177, -3332.220415141632, 15164.608080936443, 7538.706962908145, -187500.02235174447, -187500.02235174447, -0.17400000000000002, -0.792, -0.614, 192.0, 0.0, 0.0, 0.0, 0.0, 0.0, 0.0, 0.0, 0.0, 0.0, 1.6776159765395596E9, 0.0, 2023-02-28 12:26:16.539
45.0, 25954.644495802462, -4491.963027949694, 16466.552491969167, -3327.9288802062133, 15021.78043386703, 7414.654781181191, -187500.02235174447, -187500.02235174447, -0.17400000000000002, -0.792, -0.614, 192.0, 0.0, 0.0, 0.0, 0.0, 0.0, 0.0, 0.0, 0.0, 0.0, 1.6776159765446112E9, 0.0, 2023-02-28 12:26:16.544
46.0, 25953.348094624056, -4492.4100628388005, 16406.269837173204, -3329.7617232515486, 14988.319872417436, 7418.096949827308, -187500.02235174447, -187500.02235174447, -0.17400000000000002, -0.792, -0.614, 192.0, 0.0, 0.0, 0.0, 0.0, 0.0, 0.0, 0.0, 0.0, 0.0, 1.677615976547603E9, 0.0, 2023-02-28 12:26:16.547
47.0, 25998.409211445956, -4496.478080329666, 16680.525741639824, -3334.7908657539924, 15126.028970006582, 7541.63504143179, -187500.02235174447, -187500.02235174447, -0.17400000000000002, -0.792, -0.614, 192.0, 0.0, 0.0, 0.0, 0.0, 0.0, 0.0, 0.0, 0.0, 0.0, 1.677615976550568E9, 0.0, 2023-02-28 12:26:16.550
48.0, 26013.496638953286, -4495.65106578482, 16776.61589105319, -3333.226243642121, 15173.57113046302, 7554.330832282404, -187500.02235174447, -187500.02235174447, -0.17400000000000002, -0.792, -0.61, 192.0, 250.0, 144.0, 231.0, 64.0, 236.0, 240.0, 0.0, 0.0, 0.0, 1.6776159765555408E9, 0.0, 2023-02-28 12:26:16.555
49.0, 25971.251841932757, -4492.186545394247, 16514.31816987016, -3327.995935439579, 15041.092341076415, 7434.816054679877, -187500.02235174447, -187500.02235174447, -0.17400000000000002, -0.792, -0.61, 192.0, 0.0, 0.0, 0.0, 0.0, 0.0, 0.0, 0.0, 0.0, 0.0, 1.67761597655965E9, 0.0, 2023-02-28 12:26:16.559
50.0, 25963.316972651122, -4491.381882593856, 16388.611959053513, -3328.398266839775, 14978.350994390368, 7406.898725855199, -187500.02235174447, -187500.02235174447, -0.17400000000000002, -0.792, -0.61, 192.0, 0.0, 0.0, 0.0, 0.0, 0.0, 0.0, 0.0, 0.0, 0.0, 1.6776159765635293E9, 0.0, 2023-02-28 12:26:16.563
51.0, 26005.070031293635, -4493.415891339289, 16634.01176142833, -3334.165016909244, 15103.945446484739, 7523.798349356455, -187500.02235174447, -187500.02235174447, -0.17400000000000002, -0.792, -0.61, 192.0, 0.0, 0.0, 0.0, 0.0, 0.0, 0.0, 0.0, 0.0, 0.0, 1.6776159765675843E9, 0.0, 2023-02-28 12:26:16.567
52.0, 26025.231304792323, -4493.639408783843, 16795.234894184458, -3334.0085546980567, 15189.373813792923, 7566.2219603326275, -187500.02235174447, -187500.02235174447, -0.17400000000000002, -0.792, -0.61, 192.0, 0.0, 0.0, 0.0, 0.0, 0.0, 0.0, 0.0, 0.0, 0.0, 1.6776159765726452E9, 0.0, 2023-02-28 12:26:16.572
53.0, 25982.98650777179, -4491.113661660393, 16567.60472865161, -3328.42061858423, 15077.771553727574, 7454.060906655897, -187500.02235174447, -187500.02235174447, -0.17400000000000002, -0.792, -0.61, 192.0, 0.0, 0.0, 0.0, 0.0, 0.0, 0.0, 0.0, 0.0, 0.0, 1.677615976575572E9, 0.0, 2023-02-28 12:26:16.575
54.0, 25958.779568526694, -4490.264295371091, 16383.426354339881, -3327.548900550473, 14984.140096204294, 7398.270952495451, -187500.02235174447, -187500.02235174447, -0.17400000000000002, -0.792, -0.61, 192.0, 0.0, 0.0, 0.0, 0.0, 0.0, 0.0, 0.0, 0.0, 0.0, 1.677615976578578E9, 0.0, 2023-02-28 12:26:16.578
55.0, 25992.329536954112, -4491.739510505141, 16582.781563136767, -3332.42158084173, 15082.532475296555, 7506.743968337056, -187500.02235174447, -187500.02235174447, -0.17400000000000002, -0.792, -0.61, 192.0, 0.0, 0.0, 0.0, 0.0, 0.0, 0.0, 0.0, 0.0, 0.0, 1.677615976583629E9, 0.0, 2023-02-28 12:26:16.583
56.0, 26024.493697225298, -4491.22542038267, 16797.201847696524, -3333.5391680644952, 15190.357290548956, 7578.627178505323, -187500.02235174447, -187500.02235174447, -0.17400000000000002, -0.792, -0.61, 192.0, 0.0, 0.0, 0.0, 0.0, 0.0, 0.0, 0.0, 0.0, 0.0, 1.6776159765876293E9, 0.0, 2023-02-28 12:26:16.587
57.0, 25997.291624223188, -4489.034949426049, 16621.494784533355, -3329.225281384621, 15101.442051105745, 7483.05111921443, -187500.02235174447, -187500.02235174447, -0.17400000000000002, -0.792, -0.61, 192.0, 0.0, 0.0, 0.0, 0.0, 0.0, 0.0, 0.0, 0.0, 0.0, 1.6776159765915773E9, 0.0, 2023-02-28 12:26:16.591
58.0, 25971.810635544138, -4489.370225592879, 16390.0201189542, -3328.331211606409, 14981.189665936194, 7401.17667927464, -187500.02235174447, -187500.02235174447, -0.178, -0.79, -0.612, 192.0, 250.0, 112.0, 231.0, 80.0, 236.0, 224.0, 0.0, 0.0, 0.0, 1.677615976595629E9, 0.0, 2023-02-28 12:26:16.595
59.0, 26000.130295769013, -4495.762824507096, 16531.03727472273, -3333.807388997959, 15049.787169669531, 7486.828564027377, -187500.02235174447, -187500.02235174447, -0.178, -0.79, -0.612, 192.0, 0.0, 0.0, 0.0, 0.0, 0.0, 0.0, 0.0, 0.0, 0.0, 1.6776159765996287E9, 0.0, 2023-02-28 12:26:16.599
60.0, 26035.602514219587, -4495.136975662348, 16785.22131266848, -3334.7014587761714, 15179.71786018823, 7581.845829706887, -187500.02235174447, -187500.02235174447, -0.178, -0.79, -0.612, 192.0, 0.0, 0.0, 0.0, 0.0, 0.0, 0.0, 0.0, 0.0, 0.0, 1.6776159766035964E9, 0.0, 2023-02-28 12:26:16.603
61.0, 25999.795019602185, -4493.482946572655, 16673.663756092043, -3330.4993308185735, 15121.983304260171, 7506.63220961478, -187500.02235174447, -187500.02235174447, -0.178, -0.79, -0.612, 192.0, 0.0, 0.0, 0.0, 0.0, 0.0, 0.0, 0.0, 0.0, 0.0, 1.6776159766066096E9, 0.0, 2023-02-28 12:26:16.606
62.0, 25952.029341701193, -4492.2312488831585, 16410.404909897436, -3327.70536276166, 14982.463715370146, 7403.65772290918, -187500.02235174447, -187500.02235174447, -0.178, -0.79, -0.612, 192.0, 0.0, 0.0, 0.0, 0.0, 0.0, 0.0, 0.0, 0.0, 0.0, 1.6776159766116676E9, 0.0, 2023-02-28 12:26:16.611
63.0, 25967.00501048625, -4492.477118072166, 16480.432925275913, -3329.649964529272, 15025.736692635619, 7459.402973580715, -187500.02235174447, -187500.02235174447, -0.178, -0.79, -0.612, 192.0, 0.0, 0.0, 0.0, 0.0, 0.0, 0.0, 0.0, 0.0, 0.0, 1.6776159766157167E9, 0.0, 2023-02-28 12:26:16.615
64.0, 26016.178848287924, -4494.779347751063, 16758.622736766665, -3333.1144849198445, 15172.162970562336, 7568.881817922809, -187500.02235174447, -187500.02235174447, -0.178, -0.79, -0.612, 192.0, 0.0, 0.0, 0.0, 0.0, 0.0, 0.0, 0.0, 0.0, 0.0, 1.6776159766196687E9, 0.0, 2023-02-28 12:26:16.619
65.0, 26001.806676603162, -4494.801699495519, 16719.529535714333, -3331.058124429956, 15155.935604087783, 7520.445587688159, -187500.02235174447, -187500.02235174447, -0.178, -0.79, -0.612, 192.0, 0.0, 0.0, 0.0, 0.0, 0.0, 0.0, 0.0, 0.0, 0.0, 1.6776159766235964E9, 0.0, 2023-02-28 12:26:16.623
66.0, 25951.00116145625, -4496.746301263131, 16438.076369533108, -3329.806426740459, 15010.112823261361, 7403.389501975716, -187500.02235174447, -187500.02235174447, -0.178, -0.79, -0.612, 192.0, 0.0, 0.0, 0.0, 0.0, 0.0, 0.0, 0.0, 0.0, 0.0, 1.6776159766276882E9, 0.0, 2023-02-28 12:26:16.627
67.0, 25962.936992995383, -4494.734644262153, 16437.852852088556, -3331.4604558301517, 15012.593866895899, 7432.647935467713, -187500.02235174447, -187500.02235174447, -0.178, -0.79, -0.612, 192.0, 0.0, 0.0, 0.0, 0.0, 0.0, 0.0, 0.0, 0.0, 0.0, 1.677615976631654E9, 0.0, 2023-02-28 12:26:16.631
68.0, 26013.586045931108, -4495.494603573633, 16720.378902003635, -3334.1426651647885, 15157.701391899753, 7557.929463139709, -187500.02235174447, -187500.02235174447, -0.18, -0.788, -0.612, 192.0, 250.0, 96.0, 231.0, 96.0, 236.0, 224.0, 0.0, 0.0, 0.0, 1.6776159766347299E9, 0.0, 2023-02-28 12:26:16.634
69.0, 26012.535513941708, -4494.868754728885, 16755.06880939827, -3331.2145866411433, 15175.895711886373, 7542.327945509905, -187500.02235174447, -187500.02235174447, -0.18, -0.788, -0.612, 192.0, 0.0, 0.0, 0.0, 0.0, 0.0, 0.0, 0.0, 0.0, 0.0, 1.6776159766397197E9, 0.0, 2023-02-28 12:26:16.639
70.0, 25968.100245964557, -4494.064091928493, 16475.49318975129, -3327.32538310592, 15028.64241941481, 7420.220365550562, -187500.02235174447, -187500.02235174447, -0.18, -0.788, -0.612, 192.0, 0.0, 0.0, 0.0, 0.0, 0.0, 0.0, 0.0, 0.0, 0.0, 1.6776159766437275E9, 0.0, 2023-02-28 12:26:16.643
71.0, 25972.90587102245, -4494.958161706706, 16406.538058106667, -3329.717019762638, 14987.805782294963, 7418.968667861065, -187500.02235174447, -187500.02235174447, -0.18, -0.788, -0.612, 192.0, 0.0, 0.0, 0.0, 0.0, 0.0, 0.0, 0.0, 0.0, 0.0, 1.6776159766476648E9, 0.0, 2023-02-28 12:26:16.647
72.0, 26015.15066804298, -4493.862926228396, 16676.97181427143, -3332.7792087530147, 15126.073673495493, 7542.551462954458, -187500.02235174447, -187500.02235174447, -0.18, -0.788, -0.612, 192.0, 0.0, 0.0, 0.0, 0.0, 0.0, 0.0, 0.0, 0.0, 0.0, 1.6776159766516993E9, 0.0, 2023-02-28 12:26:16.651
73.0, 26018.391670989, -4492.343007605435, 16781.37681262217, -3331.281641874509, 15182.489476500688, 7560.745782941078, -187500.02235174447, -187500.02235174447, -0.18, -0.788, -0.612, 192.0, 0.0, 0.0, 0.0, 0.0, 0.0, 0.0, 0.0, 0.0, 0.0, 1.6776159766566064E9, 0.0, 2023-02-28 12:26:16.656
74.0, 25974.246975689766, -4490.331350604457, 16522.36479787407, -3326.5877755388947, 15049.586003969433, 7439.174644848663, -187500.02235174447, -187500.02235174447, -0.18, -0.788, -0.612, 192.0, 0.0, 0.0, 0.0, 0.0, 0.0, 0.0, 0.0, 0.0, 0.0, 1.677615976659724E9, 0.0, 2023-02-28 12:26:16.659
75.0, 25954.353923124545, -4492.521821561078, 16387.15909566392, -3327.750066250571, 14981.34612814738, 7403.501260697993, -187500.02235174447, -187500.02235174447, -0.18, -0.788, -0.612, 192.0, 0.0, 0.0, 0.0, 0.0, 0.0, 0.0, 0.0, 0.0, 0.0, 1.677615976662636E9, 0.0, 2023-02-28 12:26:16.662
76.0, 25991.99426078728, -4498.2215163971805, 16627.23918285837, -3334.030906442512, 15103.163135428804, 7519.171538254206, -187500.02235174447, -187500.02235174447, -0.18, -0.788, -0.612, 192.0, 0.0, 0.0, 0.0, 0.0, 0.0, 0.0, 0.0, 0.0, 0.0, 1.677615976667714E9, 0.0, 2023-02-28 12:26:16.667
77.0, 26016.067089565648, -4497.662722785798, 16795.32430116228, -3333.0921331753893, 15190.759621949152, 7567.719527211133, -187500.02235174447, -187500.02235174447, -0.18, -0.788, -0.612, 192.0, 0.0, 0.0, 0.0, 0.0, 0.0, 0.0, 0.0, 0.0, 0.0, 1.6776159766717012E9, 0.0, 2023-02-28 12:26:16.671
78.0, 25982.695935093874, -4495.204030895714, 16573.773810121278, -3328.5994325398724, 15082.018385174082, 7453.703278744612, -187500.02235174447, -187500.02235174447, -0.176, -0.792, -0.608, 192.0, 250.0, 128.0, 231.0, 64.0, 237.0, 0.0, 0.0, 0.0, 0.0, 1.6776159766756918E9, 0.0, 2023-02-28 12:26:16.675
79.0, 25952.632838801484, -4494.4664233286885, 16380.677089771878, -3328.04063892849, 14981.860218269852, 7393.152403015185, -187500.02235174447, -187500.02235174447, -0.176, -0.792, -0.608, 192.0, 0.0, 0.0, 0.0, 0.0, 0.0, 0.0, 0.0, 0.0, 0.0, 1.6776159766797397E9, 0.0, 2023-02-28 12:26:16.679
80.0, 25981.176016470912, -4494.578182050966, 16571.002193808818, -3331.8851389748024, 15079.067954905982, 7496.685683332167, -187500.02235174447, -187500.02235174447, -0.176, -0.792, -0.608, 192.0, 0.0, 0.0, 0.0, 0.0, 0.0, 0.0, 0.0, 0.0, 0.0, 1.6776159766837888E9, 0.0, 2023-02-28 12:26:16.683
81.0, 26013.47428720883, -4495.025216940072, 16793.04442322784, -3333.0697814309337, 15191.67604347182, 7574.067422636441, -187500.02235174447, -187500.02235174447, -0.176, -0.792, -0.608, 192.0, 0.0, 0.0, 0.0, 0.0, 0.0, 0.0, 0.0, 0.0, 0.0, 1.677615976687697E9, 0.0, 2023-02-28 12:26:16.687
82.0, 25982.472417649322, -4494.913458217795, 16626.59098226917, -3329.5158540625403, 15106.694711052742, 7480.659482557712, -187500.02235174447, -187500.02235174447, -0.176, -0.792, -0.608, 192.0, 0.0, 0.0, 0.0, 0.0, 0.0, 0.0, 0.0, 0.0, 0.0, 1.6776159766906755E9, 0.0, 2023-02-28 12:26:16.690
83.0, 25948.073082932602, -4495.718121018186, 16389.886008487465, -3329.024115684523, 14981.904921758764, 7397.2874757394175, -187500.02235174447, -187500.02235174447, -0.176, -0.792, -0.608, 192.0, 0.0, 0.0, 0.0, 0.0, 0.0, 0.0, 0.0, 0.0, 0.0, 1.677615976695721E9, 0.0, 2023-02-28 12:26:16.695
84.0, 25980.684278092896, -4496.254562885113, 16519.7496437728, -3332.7792087530147, 15047.216719057169, 7478.848991256833, -187500.02235174447, -187500.02235174447, -0.176, -0.792, -0.608, 192.0, 0.0, 0.0, 0.0, 0.0, 0.0, 0.0, 0.0, 0.0, 0.0, 1.6776159766997688E9, 0.0, 2023-02-28 12:26:16.699
85.0, 26029.165211816457, -4498.310923375002, 16779.633376554655, -3335.170845409733, 15176.879188642406, 7576.101431381873, -187500.02235174447, -187500.02235174447, -0.176, -0.792, -0.608, 192.0, 0.0, 0.0, 0.0, 0.0, 0.0, 0.0, 0.0, 0.0, 0.0, 1.677615976703724E9, 0.0, 2023-02-28 12:26:16.703
86.0, 26006.209970260858, -4498.199164652725, 16678.40232591657, -3331.192234896688, 15130.722836342196, 7503.167689224207, -187500.02235174447, -187500.02235174447, -0.176, -0.792, -0.608, 192.0, 0.0, 0.0, 0.0, 0.0, 0.0, 0.0, 0.0, 0.0, 0.0, 1.677615976707782E9, 0.0, 2023-02-28 12:26:16.707
87.0, 25965.66390581893, -4496.232211140658, 16410.24844768625, -3328.644136028783, 14989.795087551485, 7403.836536864822, -187500.02235174447, -187500.02235174447, -0.176, -0.792, -0.608, 192.0, 0.0, 0.0, 0.0, 0.0, 0.0, 0.0, 0.0, 0.0, 0.0, 1.6776159767117612E9, 0.0, 2023-02-28 12:26:16.711
88.0, 25975.52102512372, -4497.908591974806, 16471.626337960523, -3333.226243642121, 15018.002989054083, 7453.256243855506, -187500.02235174447, -187500.02235174447, -0.17400000000000002, -0.786, -0.608, 192.0, 250.0, 144.0, 231.0, 112.0, 237.0, 0.0, 0.0, 0.0, 0.0, 1.677615976715761E9, 0.0, 2023-02-28 12:26:16.715
89.0, 26014.01072907576, -4497.886240230351, 16751.73839947443, -3335.0590866874563, 15162.551720446554, 7567.540713255491, -187500.02235174447, -187500.02235174447, -0.17400000000000002, -0.786, -0.608, 192.0, 0.0, 0.0, 0.0, 0.0, 0.0, 0.0, 0.0, 0.0, 0.0, 1.677615976718732E9, 0.0, 2023-02-28 12:26:16.718
90.0, 26001.203179502867, -4496.321618118479, 16721.764710159863, -3331.393400596786, 15149.386542962378, 7529.229823259095, -187500.02235174447, -187500.02235174447, -0.17400000000000002, -0.786, -0.608, 192.0, 0.0, 0.0, 0.0, 0.0, 0.0, 0.0, 0.0, 0.0, 0.0, 1.6776159767247531E9, 0.0, 2023-02-28 12:26:16.724
91.0, 25958.153719681948, -4495.315789617991, 16440.289192234184, -3328.398266839775, 15005.955398792674, 7410.7879293904225, -187500.02235174447, -187500.02235174447, -0.17400000000000002, -0.786, -0.608, 192.0, 0.0, 0.0, 0.0, 0.0, 0.0, 0.0, 0.0, 0.0, 0.0, 1.6776159767287593E9, 0.0, 2023-02-28 12:26:16.728
92.0, 25967.161472697437, -4496.321618118479, 16430.6779421184, -3330.968717452135, 14998.53461963351, 7434.659592468691, -187500.02235174447, -187500.02235174447, -0.17400000000000002, -0.786, -0.608, 192.0, 0.0, 0.0, 0.0, 0.0, 0.0, 0.0, 0.0, 0.0, 0.0, 1.6776159767327142E9, 0.0, 2023-02-28 12:26:16.732
93.0, 26009.47332495133, -4497.618019296887, 16714.992131589905, -3334.1203134203333, 15144.75973186013, 7557.102448594863, -187500.02235174447, -187500.02235174447, -0.17400000000000002, -0.786, -0.608, 192.0, 0.0, 0.0, 0.0, 0.0, 0.0, 0.0, 0.0, 0.0, 0.0, 1.677615976736756E9, 0.0, 2023-02-28 12:26:16.736
94.0, 26009.629787162517, -4496.433376840756, 16759.047419911316, -3331.5051593190624, 15171.894749628873, 7546.194797300673, -187500.02235174447, -187500.02235174447, -0.17400000000000002, -0.786, -0.608, 192.0, 0.0, 0.0, 0.0, 0.0, 0.0, 0.0, 0.0, 0.0, 0.0, 1.677615976739756E9, 0.0, 2023-02-28 12:26:16.739
95.0, 25965.842719774573, -4494.064091928493, 16480.03059387572, -3327.5712522949284, 15028.620067670354, 7422.053208595898, -187500.02235174447, -187500.02235174447, -0.17400000000000002, -0.786, -0.608, 192.0, 0.0, 0.0, 0.0, 0.0, 0.0, 0.0, 0.0, 0.0, 0.0, 1.6776159767427368E9, 0.0, 2023-02-28 12:26:16.742
96.0, 25959.51717609372, -4495.963990207194, 16399.29609290315, -3330.901662218769, 14984.497724115578, 7414.364208503272, -187500.02235174447, -187500.02235174447, -0.17400000000000002, -0.786, -0.608, 192.0, 0.0, 0.0, 0.0, 0.0, 0.0, 0.0, 0.0, 0.0, 0.0, 1.6776159767467952E9, 0.0, 2023-02-28 12:26:16.746
97.0, 26009.04864180668, -4496.858059985407, 16668.72402056742, -3336.176673910222, 15120.239868192659, 7537.567023940925, -187500.02235174447, -187500.02235174447, -0.17400000000000002, -0.786, -0.608, 192.0, 0.0, 0.0, 0.0, 0.0, 0.0, 0.0, 0.0, 0.0, 0.0, 1.6776159767527444E9, 0.0, 2023-02-28 12:26:16.752
98.0, 26024.67251118094, -4494.645237284331, 16784.550760334823, -3334.3661826093416, 15180.276653799612, 7561.617500974835, -187500.02235174447, -187500.02235174447, -0.17400000000000002, -0.786, -0.604, 192.0, 250.0, 144.0, 231.0, 112.0, 237.0, 32.0, 0.0, 0.0, 0.0, 1.677615976755921E9, 0.0, 2023-02-28 12:26:16.755
99.0, 25977.398571657966, -4494.1758506507695, 16528.399768877003, -3329.1135226623446, 15050.345963280914, 7442.035668138942, -187500.02235174447, -187500.02235174447, -0.17400000000000002, -0.786, -0.604, 192.0, 0.0, 0.0, 0.0, 0.0, 0.0, 0.0, 0.0, 0.0, 0.0, 1.677615976759874E9, 0.0, 2023-02-28 12:26:16.759
100.0, 25965.932126752392, -4494.734644262153, 16382.353470606027, -3329.024115684523, 14973.34420363238, 7404.529440942936, -187500.02235174447, -187500.02235174447, -0.17400000000000002, -0.786, -0.604, 192.0, 0.0, 0.0, 0.0, 0.0, 0.0, 0.0, 0.0, 0.0, 0.0, 1.677615976763739E9, 0.0, 2023-02-28 12:26:16.763
101.0, 26005.517066182743, -4497.372150107879, 16615.23629608587, -3333.673278531227, 15096.167039414293, 7516.936363808676, -187500.02235174447, -187500.02235174447, -0.17400000000000002, -0.786, -0.604, 192.0, 0.0, 0.0, 0.0, 0.0, 0.0, 0.0, 0.0, 0.0, 0.0, 1.677615976766775E9, 0.0, 2023-02-28 12:26:16.766
102.0, 26019.799830889682, -4498.5120890750995, 16793.22323718348, -3334.1203134203333, 15190.223180082225, 7566.490181266092, -187500.02235174447, -187500.02235174447, -0.17400000000000002, -0.786, -0.604, 192.0, 0.0, 0.0, 0.0, 0.0, 0.0, 0.0, 0.0, 0.0, 0.0, 1.67761597677082E9, 0.0, 2023-02-28 12:26:16.770
103.0, 25973.039981489183, -4500.769615265085, 16580.814609624696, -3331.4381040856965, 15081.772515985074, 7454.7538107340115, -187500.02235174447, -187500.02235174447, -0.17400000000000002, -0.786, -0.604, 192.0, 0.0, 0.0, 0.0, 0.0, 0.0, 0.0, 0.0, 0.0, 0.0, 1.6776159767768219E9, 0.0, 2023-02-28 12:26:16.776
104.0, 25948.497766077253, -4502.513051332599, 16382.062897928108, -3331.840435485892, 14978.663918812743, 7387.765632601457, -187500.02235174447, -187500.02235174447, -0.17400000000000002, -0.786, -0.604, 192.0, 0.0, 0.0, 0.0, 0.0, 0.0, 0.0, 0.0, 0.0, 0.0, 1.6776159767798605E9, 0.0, 2023-02-28 12:26:16.779
105.0, 25988.172112485423, -4505.2623159006025, 16565.235443739348, -3337.0036884550677, 15070.641347246332, 7490.829526284877, -187500.02235174447, -187500.02235174447, -0.17400000000000002, -0.786, -0.604, 192.0, 0.0, 0.0, 0.0, 0.0, 0.0, 0.0, 0.0, 0.0, 0.0, 1.6776159767838275E9, 0.0, 2023-02-28 12:26:16.783
106.0, 26018.615188433552, -4506.581068823465, 16793.5138098614, -3338.7024210336713, 15190.267883571136, 7570.222922590127, -187500.02235174447, -187500.02235174447, -0.17400000000000002, -0.786, -0.604, 192.0, 0.0, 0.0, 0.0, 0.0, 0.0, 0.0, 0.0, 0.0, 0.0, 1.6776159767878377E9, 0.0, 2023-02-28 12:26:16.787
107.0, 25985.42284791742, -4503.898859488829, 16633.877650961596, -3333.7403337645933, 15110.762728543608, 7476.122078433285, -187500.02235174447, -187500.02235174447, -0.17400000000000002, -0.786, -0.604, 192.0, 0.0, 0.0, 0.0, 0.0, 0.0, 0.0, 0.0, 0.0, 0.0, 1.6776159767918203E9, 0.0, 2023-02-28 12:26:16.791
108.0, 25951.55995506763, -4503.742397277641, 16390.981243965776, -3332.7345052641044, 14981.904921758764, 7389.151440757685, -187500.02235174447, -187500.02235174447, -0.17400000000000002, -0.788, -0.608, 192.0, 250.0, 144.0, 231.0, 96.0, 237.0, 0.0, 0.0, 0.0, 0.0, 1.6776159767948468E9, 0.0, 2023-02-28 12:26:16.794
109.0, 25971.72122856632, -4507.408083368312, 16513.625265792045, -3337.3166128774424, 15042.54520446601, 7465.4379445836485, -187500.02235174447, -187500.02235174447, -0.17400000000000002, -0.788, -0.608, 192.0, 0.0, 0.0, 0.0, 0.0, 0.0, 0.0, 0.0, 0.0, 0.0, 1.6776159767988107E9, 0.0, 2023-02-28 12:26:16.798
110.0, 26010.5909121741, -4509.129167691371, 16778.247568398427, -3339.8870634898026, 15181.304834044557, 7565.462001021147, -187500.02235174447, -187500.02235174447, -0.17400000000000002, -0.788, -0.608, 192.0, 0.0, 0.0, 0.0, 0.0, 0.0, 0.0, 0.0, 0.0, 0.0, 1.6776159768028235E9, 0.0, 2023-02-28 12:26:16.802
111.0, 25993.11184801005, -4506.134033934359, 16685.241959719893, -3335.0814384319115, 15134.589688132965, 7499.591410111358, -187500.02235174447, -187500.02235174447, -0.17400000000000002, -0.788, -0.608, 192.0, 0.0, 0.0, 0.0, 0.0, 0.0, 0.0, 0.0, 0.0, 0.0, 1.677615976806861E9, 0.0, 2023-02-28 12:26:16.806
112.0, 25956.164414425424, -4503.787100766552, 16412.461270387324, -3331.907490719258, 14991.829096296919, 7394.493507682504, -187500.02235174447, -187500.02235174447, -0.17400000000000002, -0.788, -0.608, 192.0, 0.0, 0.0, 0.0, 0.0, 0.0, 0.0, 0.0, 0.0, 0.0, 1.6776159768118384E9, 0.0, 2023-02-28 12:26:16.811
113.0, 25974.3810861565, -4506.044626956538, 16465.189035557396, -3335.6625837877496, 15015.074910530439, 7444.963746662587, -187500.02235174447, -187500.02235174447, -0.17400000000000002, -0.788, -0.608, 192.0, 0.0, 0.0, 0.0, 0.0, 0.0, 0.0, 0.0, 0.0, 0.0, 1.6776159768157856E9, 0.0, 2023-02-28 12:26:16.815
114.0, 26014.033080820212, -4507.0281037125715, 16748.6538587396, -3338.5906623113947, 15162.037630324083, 7561.930425397209, -187500.02235174447, -187500.02235174447, -0.17400000000000002, -0.788, -0.608, 192.0, 0.0, 0.0, 0.0, 0.0, 0.0, 0.0, 0.0, 0.0, 0.0, 1.6776159768198462E9, 0.0, 2023-02-28 12:26:16.819
115.0, 26004.220665004334, -4504.569411822487, 16728.716102685466, -3334.902624476269, 15154.438037209278, 7524.446549945659, -187500.02235174447, -187500.02235174447, -0.17400000000000002, -0.788, -0.608, 192.0, 0.0, 0.0, 0.0, 0.0, 0.0, 0.0, 0.0, 0.0, 0.0, 1.6776159768228722E9, 0.0, 2023-02-28 12:26:16.822
116.0, 25958.533699337688, -4505.08350194496, 16444.69248589188, -3331.259290130054, 15009.151698249781, 7406.675208410646, -187500.02235174447, -187500.02235174447, -0.17400000000000002, -0.788, -0.608, 192.0, 0.0, 0.0, 0.0, 0.0, 0.0, 0.0, 0.0, 0.0, 0.0, 1.6776159768268788E9, 0.0, 2023-02-28 12:26:16.826
117.0, 25961.729998794795, -4507.810414768507, 16425.380578682492, -3333.6285750423167, 14995.092450987393, 7427.663496454179, -187500.02235174447, -187500.02235174447, -0.17400000000000002, -0.788, -0.608, 192.0, 0.0, 0.0, 0.0, 0.0, 0.0, 0.0, 0.0, 0.0, 0.0, 1.677615976830839E9, 0.0, 2023-02-28 12:26:16.830
118.0, 26011.842609863594, -4510.626734569876, 16708.21955301995, -3337.495426833085, 15138.970630046206, 7549.480503735603, -187500.02235174447, -187500.02235174447, -0.17400000000000002, -0.788, -0.608, 192.0, 0.0, 0.0, 0.0, 0.0, 0.0, 0.0, 0.0, 0.0, 0.0, 1.6776159768348503E9, 0.0, 2023-02-28 12:26:16.834
119.0, 26011.14970578548, -4509.777368280575, 16764.344783347224, -3335.7296390211154, 15168.00554609365, 7542.618518187824, -187500.02235174447, -187500.02235174447, -0.168, -0.79, -0.614, 192.0, 250.0, 192.0, 231.0, 80.0, 236.0, 208.0, 0.0, 0.0, 0.0, 1.6776159768388765E9, 0.0, 2023-02-28 12:26:16.838
120.0, 25958.064312704126, -4507.430435112767, 16487.58548350161, -3331.8851389748024, 15027.323666491946, 7416.934659115632, -187500.02235174447, -187500.02235174447, -0.168, -0.79, -0.614, 192.0, 0.0, 0.0, 0.0, 0.0, 0.0, 0.0, 0.0, 0.0, 0.0, 1.6776159768439832E9, 0.0, 2023-02-28 12:26:16.843
121.0, 25946.84373698756, -4505.485833345155, 16397.038566713163, -3333.1368366642996, 14978.507456601556, 7405.535269443425, -187500.02235174447, -187500.02235174447, -0.168, -0.79, -0.614, 192.0, 0.0, 0.0, 0.0, 0.0, 0.0, 0.0, 0.0, 0.0, 0.0, 1.6776159768478804E9, 0.0, 2023-02-28 12:26:16.847
122.0, 25990.273176464223, -4506.469310101189, 16660.4315233745, -3337.540130321995, 15111.075652965983, 7527.218166258117, -187500.02235174447, -187500.02235174447, -0.168, -0.79, -0.614, 192.0, 0.0, 0.0, 0.0, 0.0, 0.0, 0.0, 0.0, 0.0, 0.0, 1.6776159768508909E9, 0.0, 2023-02-28 12:26:16.850
123.0, 26006.67935689442, -4506.603420567921, 16784.6625190571, -3336.199025654677, 15175.851008397462, 7551.6039194588575, -187500.02235174447, -187500.02235174447, -0.168, -0.79, -0.614, 192.0, 0.0, 0.0, 0.0, 0.0, 0.0, 0.0, 0.0, 0.0, 0.0, 1.6776159768548973E9, 0.0, 2023-02-28 12:26:16.854
124.0, 25956.007952214237, -4505.932868234261, 16533.719484057365, -3330.745200007582, 15050.010687114083, 7430.502168000004, -187500.02235174447, -187500.02235174447, -0.168, -0.79, -0.614, 192.0, 0.0, 0.0, 0.0, 0.0, 0.0, 0.0, 0.0, 0.0, 0.0, 1.6776159768588717E9, 0.0, 2023-02-28 12:26:16.858
125.0, 25931.197515868847, -4507.65395255732, 16380.028889182675, -3331.7733802525263, 14969.946738475173, 7387.787984345911, -187500.02235174447, -187500.02235174447, -0.168, -0.79, -0.614, 192.0, 0.0, 0.0, 0.0, 0.0, 0.0, 0.0, 0.0, 0.0, 0.0, 1.6776159768628948E9, 0.0, 2023-02-28 12:26:16.862
126.0, 25982.33830718259, -4509.576202580476, 16607.03320587077, -3337.540130321995, 15084.65589101981, 7498.004436255031, -187500.02235174447, -187500.02235174447, -0.168, -0.79, -0.614, 192.0, 0.0, 0.0, 0.0, 0.0, 0.0, 0.0, 0.0, 0.0, 0.0, 1.6776159768679187E9, 0.0, 2023-02-28 12:26:16.867
127.0, 26013.407231975467, -4507.60924906841, 16793.312644161302, -3337.785999511004, 15182.064793356038, 7557.750649184067, -187500.02235174447, -187500.02235174447, -0.168, -0.79, -0.614, 192.0, 0.0, 0.0, 0.0, 0.0, 0.0, 0.0, 0.0, 0.0, 0.0, 1.677615976871945E9, 0.0, 2023-02-28 12:26:16.871
128.0, 25980.125484481512, -4503.854155999918, 16587.073098072186, -3332.8909674752913, 15079.514989795089, 7450.931662432154, -187500.02235174447, -187500.02235174447, -0.168, -0.79, -0.614, 192.0, 0.0, 0.0, 0.0, 0.0, 0.0, 0.0, 0.0, 0.0, 0.0, 1.6776159768758495E9, 0.0, 2023-02-28 12:26:16.875
129.0, 25939.490013061764, -4504.569411822487, 16377.77136299269, -3332.265118630543, 14969.834979752897, 7385.55280990038, -187500.02235174447, -187500.02235174447, -0.17200000000000001, -0.786, -0.612, 192.0, 250.0, 160.0, 231.0, 112.0, 236.0, 224.0, 0.0, 0.0, 0.0, 1.6776159768789167E9, 0.0, 2023-02-28 12:26:16.878
130.0, 25964.99335348527, -4507.4974903461325, 16553.724295344866, -3336.8919297327916, 15056.64915521731, 7484.325168648383, -187500.02235174447, -187500.02235174447, -0.17200000000000001, -0.786, -0.612, 192.0, 0.0, 0.0, 0.0, 0.0, 0.0, 0.0, 0.0, 0.0, 0.0, 1.6776159768828778E9, 0.0, 2023-02-28 12:26:16.882
131.0, 25992.888330565493, -4509.173871180281, 16788.93170224806, -3337.4730750886292, 15176.454505497755, 7567.943044655686, -187500.02235174447, -187500.02235174447, -0.17200000000000001, -0.786, -0.612, 192.0, 0.0, 0.0, 0.0, 0.0, 0.0, 0.0, 0.0, 0.0, 0.0, 1.677615976886917E9, 0.0, 2023-02-28 12:26:16.886
132.0, 25957.773740026205, -4508.391560124345, 16638.23624113038, -3332.6674500307386, 15100.480926094167, 7477.887866245254, -187500.02235174447, -187500.02235174447, -0.17200000000000001, -0.786, -0.612, 192.0, 0.0, 0.0, 0.0, 0.0, 0.0, 0.0, 0.0, 0.0, 0.0, 1.6776159768910005E9, 0.0, 2023-02-28 12:26:16.891
133.0, 25932.85154495854, -4504.74822577813, 16388.164924164408, -3330.253461629565, 14974.618253066332, 7388.816164590856, -187500.02235174447, -187500.02235174447, -0.17200000000000001, -0.786, -0.612, 192.0, 0.0, 0.0, 0.0, 0.0, 0.0, 0.0, 0.0, 0.0, 0.0, 1.6776159768949335E9, 0.0, 2023-02-28 12:26:16.894
134.0, 25961.640591816973, -4505.12820543387, 16501.01888191925, -3335.0143831985456, 15029.044750815005, 7465.683813772656, -187500.02235174447, -187500.02235174447, -0.17200000000000001, -0.786, -0.612, 192.0, 0.0, 0.0, 0.0, 0.0, 0.0, 0.0, 0.0, 0.0, 0.0, 1.6776159769008677E9, 0.0, 2023-02-28 12:26:16.900
135.0, 26000.95731031386, -4505.351722878423, 16770.156236905605, -3338.098923933378, 15166.686793170786, 7569.105335367362, -187500.02235174447, -187500.02235174447, -0.17200000000000001, -0.786, -0.612, 192.0, 0.0, 0.0, 0.0, 0.0, 0.0, 0.0, 0.0, 0.0, 0.0, 1.677615976903948E9, 0.0, 2023-02-28 12:26:16.903
136.0, 25983.210025216347, -4502.334237376957, 16687.544189398788, -3333.874444231325, 15127.727702585185, 7504.0617590024185, -187500.02235174447, -187500.02235174447, -0.17200000000000001, -0.786, -0.612, 192.0, 0.0, 0.0, 0.0, 0.0, 0.0, 0.0, 0.0, 0.0, 0.0, 1.6776159769078815E9, 0.0, 2023-02-28 12:26:16.907
137.0, 25941.501670062742, -4501.08253968746, 16411.14251746446, -3331.8180837414366, 14987.202285194671, 7394.024121048942, -187500.02235174447, -187500.02235174447, -0.17200000000000001, -0.786, -0.612, 192.0, 0.0, 0.0, 0.0, 0.0, 0.0, 0.0, 0.0, 0.0, 0.0, 1.6776159769119225E9, 0.0, 2023-02-28 12:26:16.911
138.0, 25953.526908579697, -4503.317714132991, 16451.7332853953, -3335.260252387554, 15007.005930782072, 7440.1357698602405, -187500.02235174447, -187500.02235174447, -0.17200000000000001, -0.786, -0.612, 192.0, 0.0, 0.0, 0.0, 0.0, 0.0, 0.0, 0.0, 0.0, 0.0, 1.677615976915912E9, 0.0, 2023-02-28 12:26:16.915
139.0, 25998.61037714605, -4504.591763566943, 16735.667495211066, -3337.89775823328, 15148.961859817728, 7561.192817830184, -187500.02235174447, -187500.02235174447, -0.168, -0.79, -0.618, 192.0, 250.0, 192.0, 231.0, 80.0, 236.0, 176.0, 0.0, 0.0, 0.0, 1.6776159769189444E9, 0.0, 2023-02-28 12:26:16.918
140.0, 25988.216815974334, -4505.575240322976, 16728.78315791883, -3336.0425634434896, 15150.325316229502, 7524.670067390212, -187500.02235174447, -187500.02235174447, -0.168, -0.79, -0.618, 192.0, 0.0, 0.0, 0.0, 0.0, 0.0, 0.0, 0.0, 0.0, 0.0, 1.6776159769229589E9, 0.0, 2023-02-28 12:26:16.922
141.0, 25936.38312058248, -4509.620906069387, 16445.25127950326, -3334.0085546980567, 15003.787279580509, 7401.8025281193895, -187500.02235174447, -187500.02235174447, -0.168, -0.79, -0.618, 192.0, 0.0, 0.0, 0.0, 0.0, 0.0, 0.0, 0.0, 0.0, 0.0, 1.6776159769279885E9, 0.0, 2023-02-28 12:26:16.927
142.0, 25936.718396749307, -4512.817205526496, 16413.422395398902, -3336.9813367106126, 14981.994328736584, 7418.588688205325, -187500.02235174447, -187500.02235174447, -0.168, -0.79, -0.618, 192.0, 0.0, 0.0, 0.0, 0.0, 0.0, 0.0, 0.0, 0.0, 0.0, 1.6776159769310515E9, 0.0, 2023-02-28 12:26:16.931
143.0, 25980.37135367052, -4514.18066193827, 16694.987320302407, -3340.8481885013807, 15124.687865339265, 7542.842035632377, -187500.02235174447, -187500.02235174447, -0.168, -0.79, -0.618, 192.0, 0.0, 0.0, 0.0, 0.0, 0.0, 0.0, 0.0, 0.0, 0.0, 1.677615976934993E9, 0.0, 2023-02-28 12:26:16.934
144.0, 25976.03511524619, -4516.03585672806, 16761.64022226813, -3339.484732089607, 15160.540063445576, 7540.338640253382, -187500.02235174447, -187500.02235174447, -0.168, -0.79, -0.618, 192.0, 0.0, 0.0, 0.0, 0.0, 0.0, 0.0, 0.0, 0.0, 0.0, 1.6776159769389462E9, 0.0, 2023-02-28 12:26:16.938
145.0, 25939.04297817266, -4513.621868326887, 16488.725422468833, -3334.9473279651797, 15022.78626236752, 7416.532327715437, -187500.02235174447, -187500.02235174447, -0.168, -0.79, -0.618, 192.0, 0.0, 0.0, 0.0, 0.0, 0.0, 0.0, 0.0, 0.0, 0.0, 1.6776159769430623E9, 0.0, 2023-02-28 12:26:16.943
146.0, 25938.46183281682, -4511.409045625812, 16388.209627653316, -3335.3049558764646, 14971.734878031599, 7401.020217063453, -187500.02235174447, -187500.02235174447, -0.168, -0.79, -0.618, 192.0, 0.0, 0.0, 0.0, 0.0, 0.0, 0.0, 0.0, 0.0, 0.0, 1.677615976947045E9, 0.0, 2023-02-28 12:26:16.947
147.0, 25963.47343486231, -4520.506205619122, 16649.501520335856, -3341.742258279593, 15100.6150365609, 7525.452378446148, -187500.02235174447, -187500.02235174447, -0.168, -0.79, -0.618, 192.0, 0.0, 0.0, 0.0, 0.0, 0.0, 0.0, 0.0, 0.0, 0.0, 1.6776159769510407E9, 0.0, 2023-02-28 12:26:16.951
148.0, 25968.56963259812, -4527.032915000072, 16785.02014696838, -3342.8598455023584, 15170.374831005913, 7552.565044470435, -187500.02235174447, -187500.02235174447, -0.168, -0.79, -0.618, 192.0, 0.0, 0.0, 0.0, 0.0, 0.0, 0.0, 0.0, 0.0, 0.0, 1.677615976955995E9, 0.0, 2023-02-28 12:26:16.955
149.0, 25929.096451890047, -4525.490644632655, 16537.005190492295, -3338.188330911199, 15047.775512668553, 7430.390409277727, -187500.02235174447, -187500.02235174447, -0.17, -0.788, -0.614, 192.0, 250.0, 176.0, 231.0, 96.0, 236.0, 208.0, 0.0, 0.0, 0.0, 1.6776159769600213E9, 0.0, 2023-02-28 12:26:16.960
150.0, 25891.031431082658, -4528.999868512138, 16372.451647812326, -3338.098923933378, 14963.352973860858, 7385.55280990038, -187500.02235174447, -187500.02235174447, -0.17, -0.788, -0.614, 192.0, 0.0, 0.0, 0.0, 0.0, 0.0, 0.0, 0.0, 0.0, 0.0, 1.6776159769629984E9, 0.0, 2023-02-28 12:26:16.962
151.0, 25911.2150563258, -4535.928909293283, 16593.75626966432, -3343.1727699247326, 15074.016460659082, 7500.552535122935, -187500.02235174447, -187500.02235174447, -0.17, -0.788, -0.614, 192.0, 0.0, 0.0, 0.0, 0.0, 0.0, 0.0, 0.0, 0.0, 0.0, 1.6776159769669957E9, 0.0, 2023-02-28 12:26:16.966
152.0, 25930.705777490828, -4535.750095337641, 16787.210617925004, -3342.390458868797, 15175.582787463998, 7564.567931242935, -187500.02235174447, -187500.02235174447, -0.17, -0.788, -0.614, 192.0, 0.0, 0.0, 0.0, 0.0, 0.0, 0.0, 0.0, 0.0, 0.0, 1.677615976971006E9, 0.0, 2023-02-28 12:26:16.971
153.0, 25890.897320615928, -4532.598499369443, 16586.000214338328, -3335.9531564656686, 15076.877483949362, 7456.340784590338, -187500.02235174447, -187500.02235174447, -0.17, -0.788, -0.614, 192.0, 0.0, 0.0, 0.0, 0.0, 0.0, 0.0, 0.0, 0.0, 0.0, 1.6776159769750516E9, 0.0, 2023-02-28 12:26:16.975
154.0, 25841.298799669603, -4535.526577893088, 16371.088191400551, -3335.0367349430007, 14965.834017495397, 7385.1951819890955, -187500.02235174447, -187500.02235174447, -0.17, -0.788, -0.614, 192.0, 0.0, 0.0, 0.0, 0.0, 0.0, 0.0, 0.0, 0.0, 0.0, 1.677615976979026E9, 0.0, 2023-02-28 12:26:16.979
155.0, 25864.924593558862, -4539.304022706035, 16538.36864690407, -3340.512912334551, 15045.652096945298, 7480.190095924151, -187500.02235174447, -187500.02235174447, -0.17, -0.788, -0.614, 192.0, 0.0, 0.0, 0.0, 0.0, 0.0, 0.0, 0.0, 0.0, 0.0, 1.6776159769839747E9, 0.0, 2023-02-28 12:26:16.983
156.0, 25894.78652415115, -4541.293327962557, 16780.773315521874, -3343.485694347107, 15168.676098427308, 7566.557236499458, -187500.02235174447, -187500.02235174447, -0.17, -0.788, -0.614, 192.0, 0.0, 0.0, 0.0, 0.0, 0.0, 0.0, 0.0, 0.0, 0.0, 1.6776159769869573E9, 0.0, 2023-02-28 12:26:16.986
157.0, 25851.804119563596, -4543.863778574918, 16640.449063831456, -3340.155284423266, 15099.296283638036, 7478.178438923173, -187500.02235174447, -187500.02235174447, -0.17, -0.788, -0.614, 192.0, 0.0, 0.0, 0.0, 0.0, 0.0, 0.0, 0.0, 0.0, 0.0, 1.677615976990975E9, 0.0, 2023-02-28 12:26:16.990
158.0, 25807.592369030997, -4547.037726287571, 16386.354432863525, -3339.2165111561435, 14966.325755873413, 7381.328330198327, -187500.02235174447, -187500.02235174447, -0.17, -0.788, -0.614, 192.0, 0.0, 0.0, 0.0, 0.0, 0.0, 0.0, 0.0, 0.0, 0.0, 1.677615976995005E9, 0.0, 2023-02-28 12:26:16.995
159.0, 25818.79059300311, -4550.748115867152, 16488.725422468833, -3343.7315635361156, 15014.002026796583, 7450.261110098495, -187500.02235174447, -187500.02235174447, -0.17, -0.782, -0.612, 192.0, 250.0, 176.0, 231.0, 144.0, 236.0, 224.0, 0.0, 0.0, 0.0, 1.6776159769990127E9, 0.0, 2023-02-28 12:26:16.999
160.0, 25847.378474161444, -4554.212636257725, 16762.69075425753, -3347.643118815794, 15153.074580797504, 7557.549483483968, -187500.02235174447, -187500.02235174447, -0.17, -0.782, -0.612, 192.0, 0.0, 0.0, 0.0, 0.0, 0.0, 0.0, 0.0, 0.0, 0.0, 1.67761597700302E9, 0.0, 2023-02-28 12:26:17.003
161.0, 25830.50290709769, -4553.676194390797, 16691.5898551452, -3344.647985058783, 15118.965818758705, 7499.0102647555195, -187500.02235174447, -187500.02235174447, -0.17, -0.782, -0.612, 192.0, 0.0, 0.0, 0.0, 0.0, 0.0, 0.0, 0.0, 0.0, 0.0, 1.677615977007176E9, 0.0, 2023-02-28 12:26:17.007
162.0, 25781.15025534037, -4555.33022348049, 16414.607037855036, -3341.965775724146, 14974.953529233162, 7389.687882624613, -187500.02235174447, -187500.02235174447, -0.17, -0.782, -0.612, 192.0, 0.0, 0.0, 0.0, 0.0, 0.0, 0.0, 0.0, 0.0, 0.0, 1.6776159770110781E9, 0.0, 2023-02-28 12:26:17.011
163.0, 25785.553548998065, -4560.627586916397, 16446.97236382632, -3346.4361246152075, 14986.419974138735, 7431.0386098669305, -187500.02235174447, -187500.02235174447, -0.17, -0.782, -0.612, 192.0, 0.0, 0.0, 0.0, 0.0, 0.0, 0.0, 0.0, 0.0, 0.0, 1.677615977015088E9, 0.0, 2023-02-28 12:26:17.015
164.0, 25820.712843026264, -4564.382679984889, 16732.761768431876, -3349.7888862835034, 15129.828766563985, 7553.280300293005, -187500.02235174447, -187500.02235174447, -0.17, -0.782, -0.612, 192.0, 0.0, 0.0, 0.0, 0.0, 0.0, 0.0, 0.0, 0.0, 0.0, 1.6776159770200763E9, 0.0, 2023-02-28 12:26:17.020
165.0, 25811.883903966416, -4564.0250520736045, 16734.907535899583, -3347.0396217155007, 15132.75684508763, 7521.049084788452, -187500.02235174447, -187500.02235174447, -0.17, -0.782, -0.612, 192.0, 0.0, 0.0, 0.0, 0.0, 0.0, 0.0, 0.0, 0.0, 0.0, 1.6776159770230129E9, 0.0, 2023-02-28 12:26:17.023
166.0, 25759.849042874463, -4564.382679984889, 16449.02872431621, -3343.5080460915624, 14987.24698868358, 7400.193202518607, -187500.02235174447, -187500.02235174447, -0.17, -0.782, -0.612, 192.0, 0.0, 0.0, 0.0, 0.0, 0.0, 0.0, 0.0, 0.0, 0.0, 1.677615977027114E9, 0.0, 2023-02-28 12:26:17.027
167.0, 25752.20474627075, -4569.568284698521, 16408.594418596556, -3347.196083926688, 14962.213034893637, 7412.821938135856, -187500.02235174447, -187500.02235174447, -0.17, -0.782, -0.612, 192.0, 0.0, 0.0, 0.0, 0.0, 0.0, 0.0, 0.0, 0.0, 0.0, 1.6776159770311441E9, 0.0, 2023-02-28 12:26:17.031
168.0, 25808.15116264238, -4570.887037621384, 16689.64525337759, -3352.2922816624978, 15103.587818573455, 7540.53980595348, -187500.02235174447, -187500.02235174447, -0.17, -0.782, -0.612, 192.0, 0.0, 0.0, 0.0, 0.0, 0.0, 0.0, 0.0, 0.0, 0.0, 1.6776159770351007E9, 0.0, 2023-02-28 12:26:17.035
169.0, 25808.77701148713, -4573.681005678297, 16767.541082804335, -3351.219397928643, 15143.597441148453, 7543.669050177223, -187500.02235174447, -187500.02235174447, -0.17, -0.786, -0.608, 192.0, 250.0, 176.0, 231.0, 112.0, 237.0, 0.0, 0.0, 0.0, 0.0, 1.6776159770410886E9, 0.0, 2023-02-28 12:26:17.041
170.0, 25747.175603768304, -4577.212581302236, 16497.017919661754, -3347.911339749258, 15002.848506313385, 7418.253412038495, -187500.02235174447, -187500.02235174447, -0.17, -0.786, -0.608, 192.0, 0.0, 0.0, 0.0, 0.0, 0.0, 0.0, 0.0, 0.0, 0.0, 1.67761597704413E9, 0.0, 2023-02-28 12:26:17.044
171.0, 25735.306827462537, -4577.257284791146, 16385.370956107494, -3348.6265955718277, 14944.175177118204, 7398.60622866228, -187500.02235174447, -187500.02235174447, -0.17, -0.786, -0.608, 192.0, 0.0, 0.0, 0.0, 0.0, 0.0, 0.0, 0.0, 0.0, 0.0, 1.6776159770471983E9, 0.0, 2023-02-28 12:26:17.047
172.0, 25773.014220358637, -4579.4030522588555, 16640.71728476492, -3352.9628339961573, 15072.27302459157, 7520.758512110533, -187500.02235174447, -187500.02235174447, -0.17, -0.786, -0.608, 192.0, 0.0, 0.0, 0.0, 0.0, 0.0, 0.0, 0.0, 0.0, 0.0, 1.6776159770511212E9, 0.0, 2023-02-28 12:26:17.051
173.0, 25791.946147912284, -4577.950188869261, 16785.780106279864, -3351.577025839928, 15149.990040062672, 7555.314309038438, -187500.02235174447, -187500.02235174447, -0.17, -0.786, -0.608, 192.0, 0.0, 0.0, 0.0, 0.0, 0.0, 0.0, 0.0, 0.0, 0.0, 1.6776159770550826E9, 0.0, 2023-02-28 12:26:17.055
174.0, 25753.657609660342, -4573.926874867306, 16545.074170240663, -3345.676165303727, 15027.703646147687, 7437.922947159165, -187500.02235174447, -187500.02235174447, -0.17, -0.786, -0.608, 192.0, 0.0, 0.0, 0.0, 0.0, 0.0, 0.0, 0.0, 0.0, 0.0, 1.6776159770591147E9, 0.0, 2023-02-28 12:26:17.059
175.0, 25728.444841914756, -4572.317549266523, 16371.021136167186, -3344.737392036604, 14938.073150881906, 7389.218495991051, -187500.02235174447, -187500.02235174447, -0.17, -0.786, -0.608, 192.0, 0.0, 0.0, 0.0, 0.0, 0.0, 0.0, 0.0, 0.0, 0.0, 1.6776159770631068E9, 0.0, 2023-02-28 12:26:17.063
176.0, 25753.098816048958, -4578.956017369749, 16584.524999204277, -3350.817066528448, 15042.276983532547, 7501.178383967685, -187500.02235174447, -187500.02235174447, -0.17, -0.786, -0.608, 192.0, 0.0, 0.0, 0.0, 0.0, 0.0, 0.0, 0.0, 0.0, 0.0, 1.6776159770670912E9, 0.0, 2023-02-28 12:26:17.067
177.0, 25783.698354208274, -4580.721805181719, 16787.814115025296, -3352.2922816624978, 15147.419589450312, 7565.909035910254, -187500.02235174447, -187500.02235174447, -0.17, -0.786, -0.608, 192.0, 0.0, 0.0, 0.0, 0.0, 0.0, 0.0, 0.0, 0.0, 0.0, 1.6776159770720973E9, 0.0, 2023-02-28 12:26:17.072
178.0, 25751.400083470355, -4576.452621990755, 16595.633816198566, -3346.8608077598583, 15054.481036005145, 7465.661462028202, -187500.02235174447, -187500.02235174447, -0.17, -0.786, -0.608, 192.0, 0.0, 0.0, 0.0, 0.0, 0.0, 0.0, 0.0, 0.0, 0.0, 1.677615977075076E9, 0.0, 2023-02-28 12:26:17.075
179.0, 25721.58285636698, -4574.642130689876, 16374.977394935775, -3346.0784967039226, 14938.72135147111, 7395.856964094278, -187500.02235174447, -187500.02235174447, -0.17400000000000002, -0.79, -0.614, 192.0, 250.0, 144.0, 231.0, 80.0, 236.0, 208.0, 0.0, 0.0, 0.0, 1.6776159770790877E9, 0.0, 2023-02-28 12:26:17.079
180.0, 25755.199880027758, -4573.926874867306, 16533.94300150192, -3350.4370868727074, 15016.147794264292, 7490.315436162405, -187500.02235174447, -187500.02235174447, -0.17400000000000002, -0.79, -0.614, 192.0, 0.0, 0.0, 0.0, 0.0, 0.0, 0.0, 0.0, 0.0, 0.0, 1.6776159770831358E9, 0.0, 2023-02-28 12:26:17.083
181.0, 25789.979194400217, -4574.552723712054, 16782.94143473404, -3352.784020040515, 15142.926888814794, 7580.1918006171945, -187500.02235174447, -187500.02235174447, -0.17400000000000002, -0.79, -0.614, 192.0, 0.0, 0.0, 0.0, 0.0, 0.0, 0.0, 0.0, 0.0, 0.0, 1.677615977087113E9, 0.0, 2023-02-28 12:26:17.087
182.0, 25767.403932500358, -4570.171781798814, 16653.86011050464, -3348.358374638364, 15077.905664194306, 7499.211430455617, -187500.02235174447, -187500.02235174447, -0.17400000000000002, -0.79, -0.614, 192.0, 0.0, 0.0, 0.0, 0.0, 0.0, 0.0, 0.0, 0.0, 0.0, 1.6776159770911307E9, 0.0, 2023-02-28 12:26:17.091
183.0, 25726.209667469226, -4570.842334132473, 16396.502124846236, -3347.2407874155983, 14942.878775939796, 7402.294266497406, -187500.02235174447, -187500.02235174447, -0.17400000000000002, -0.79, -0.614, 192.0, 0.0, 0.0, 0.0, 0.0, 0.0, 0.0, 0.0, 0.0, 0.0, 1.67761597709513E9, 0.0, 2023-02-28 12:26:17.095
184.0, 25748.606115413444, -4574.172744056314, 16488.859532935563, -3352.3369851514085, 14985.481200871613, 7467.650767284724, -187500.02235174447, -187500.02235174447, -0.17400000000000002, -0.79, -0.614, 192.0, 0.0, 0.0, 0.0, 0.0, 0.0, 0.0, 0.0, 0.0, 0.0, 1.677615977099136E9, 0.0, 2023-02-28 12:26:17.099
185.0, 25788.839255432995, -4577.279636535602, 16764.210672880494, -3355.9132642642576, 15126.61011536242, 7573.978015658619, -187500.02235174447, -187500.02235174447, -0.17400000000000002, -0.79, -0.614, 192.0, 0.0, 0.0, 0.0, 0.0, 0.0, 0.0, 0.0, 0.0, 0.0, 1.6776159771021297E9, 0.0, 2023-02-28 12:26:17.102
186.0, 25770.399066257367, -4576.966712113227, 16703.43627970651, -3352.135819451311, 15097.016405703595, 7517.696323120156, -187500.02235174447, -187500.02235174447, -0.17400000000000002, -0.79, -0.614, 192.0, 0.0, 0.0, 0.0, 0.0, 0.0, 0.0, 0.0, 0.0, 0.0, 1.6776159771062205E9, 0.0, 2023-02-28 12:26:17.106
187.0, 25726.008501769127, -4574.306854523045, 16420.5749536246, -3348.492485105096, 14951.305383599447, 7407.591629933314, -187500.02235174447, -187500.02235174447, -0.17400000000000002, -0.79, -0.614, 192.0, 0.0, 0.0, 0.0, 0.0, 0.0, 0.0, 0.0, 0.0, 0.0, 1.6776159771111677E9, 0.0, 2023-02-28 12:26:17.111
188.0, 25732.6246181279, -4576.698491179764, 16440.02097130072, -3352.2922816624978, 14956.736857502086, 7445.388429807238, -187500.02235174447, -187500.02235174447, -0.17400000000000002, -0.79, -0.614, 192.0, 0.0, 0.0, 0.0, 0.0, 0.0, 0.0, 0.0, 0.0, 0.0, 1.6776159771162224E9, 0.0, 2023-02-28 12:26:17.116
189.0, 25784.570072242033, -4578.911313880839, 16727.866736396165, -3356.5391131090064, 15101.777327272574, 7565.97609114362, -187500.02235174447, -187500.02235174447, -0.17400000000000002, -0.79, -0.606, 192.0, 250.0, 144.0, 231.0, 80.0, 237.0, 16.0, 0.0, 0.0, 0.0, 1.6776159771202104E9, 0.0, 2023-02-28 12:26:17.120
190.0, 25780.859682662453, -4576.631435946398, 16742.015390636374, -3353.074592718434, 15115.61305709041, 7543.691401921678, -187500.02235174447, -187500.02235174447, -0.17400000000000002, -0.79, -0.606, 192.0, 0.0, 0.0, 0.0, 0.0, 0.0, 0.0, 0.0, 0.0, 0.0, 1.6776159771232164E9, 0.0, 2023-02-28 12:26:17.123
191.0, 25725.80733606903, -4575.603255701453, 16456.091875564085, -3349.1183339498443, 14970.349069875369, 7422.790816162922, -187500.02235174447, -187500.02235174447, -0.17400000000000002, -0.79, -0.606, 192.0, 0.0, 0.0, 0.0, 0.0, 0.0, 0.0, 0.0, 0.0, 0.0, 1.6776159771262028E9, 0.0, 2023-02-28 12:26:17.126
192.0, 25720.46526914421, -4578.061947591537, 16403.319406905106, -3351.867598517847, 14939.05662763794, 7429.473987755059, -187500.02235174447, -187500.02235174447, -0.17400000000000002, -0.79, -0.606, 192.0, 0.0, 0.0, 0.0, 0.0, 0.0, 0.0, 0.0, 0.0, 0.0, 1.6776159771303463E9, 0.0, 2023-02-28 12:26:17.130
193.0, 25775.450560504265, -4578.866610391929, 16682.11271549615, -3356.449706131185, 15080.587873528943, 7552.632099703801, -187500.02235174447, -187500.02235174447, -0.17400000000000002, -0.79, -0.606, 192.0, 0.0, 0.0, 0.0, 0.0, 0.0, 0.0, 0.0, 0.0, 0.0, 1.677615977134205E9, 0.0, 2023-02-28 12:26:17.134
194.0, 25783.76540944164, -4579.447755747767, 16769.79860899432, -3355.645043330794, 15129.717007841708, 7559.918768396231, -187500.02235174447, -187500.02235174447, -0.17400000000000002, -0.79, -0.606, 192.0, 0.0, 0.0, 0.0, 0.0, 0.0, 0.0, 0.0, 0.0, 0.0, 1.6776159771392376E9, 0.0, 2023-02-28 12:26:17.139
195.0, 25739.106624019936, -4576.877305135406, 16501.197695874893, -3350.124162450333, 14991.918503274741, 7435.128979102252, -187500.02235174447, -187500.02235174447, -0.17400000000000002, -0.79, -0.606, 192.0, 0.0, 0.0, 0.0, 0.0, 0.0, 0.0, 0.0, 0.0, 0.0, 1.6776159771432755E9, 0.0, 2023-02-28 12:26:17.143
196.0, 25720.353510421934, -4579.090127836482, 16381.90643571692, -3350.817066528448, 14926.785519931975, 7409.424472978649, -187500.02235174447, -187500.02235174447, -0.17400000000000002, -0.79, -0.606, 192.0, 0.0, 0.0, 0.0, 0.0, 0.0, 0.0, 0.0, 0.0, 0.0, 1.6776159771472292E9, 0.0, 2023-02-28 12:26:17.147
197.0, 25765.302868521558, -4581.414709259833, 16632.6259532721, -3355.421525886241, 15052.290565048525, 7529.676858148201, -187500.02235174447, -187500.02235174447, -0.17400000000000002, -0.79, -0.606, 192.0, 0.0, 0.0, 0.0, 0.0, 0.0, 0.0, 0.0, 0.0, 0.0, 1.6776159771502116E9, 0.0, 2023-02-28 12:26:17.150
198.0, 25785.553548998065, -4580.118308081425, 16785.824809768776, -3354.460400874663, 15131.303981698034, 7571.16169585725, -187500.02235174447, -187500.02235174447, -0.17400000000000002, -0.79, -0.606, 192.0, 0.0, 0.0, 0.0, 0.0, 0.0, 0.0, 0.0, 0.0, 0.0, 1.677615977154192E9, 0.0, 2023-02-28 12:26:17.154
199.0, 25738.726644364197, -4579.00072085866, 16552.36083893309, -3349.2747961610316, 15011.744500606597, 7456.1619706346955, -187500.02235174447, -187500.02235174447, -0.17, -0.788, -0.612, 192.0, 250.0, 176.0, 231.0, 96.0, 236.0, 224.0, 0.0, 0.0, 0.0, 1.677615977158254E9, 0.0, 2023-02-28 12:26:17.158
200.0, 25715.86080978642, -4577.90548538035, 16372.295185601139, -3348.4030781272745, 14919.118871583805, 7402.651894408691, -187500.02235174447, -187500.02235174447, -0.17, -0.788, -0.612, 192.0, 0.0, 0.0, 0.0, 0.0, 0.0, 0.0, 0.0, 0.0, 0.0, 1.6776159771623244E9, 0.0, 2023-02-28 12:26:17.162
201.0, 25753.545850938066, -4580.878267392906, 16579.94289159094, -3354.2145316856545, 15023.099186789894, 7513.494195162559, -187500.02235174447, -187500.02235174447, -0.17, -0.788, -0.612, 192.0, 0.0, 0.0, 0.0, 0.0, 0.0, 0.0, 0.0, 0.0, 0.0, 1.6776159771671796E9, 0.0, 2023-02-28 12:26:17.167
202.0, 25776.791665171586, -4583.135793582892, 16791.949187749527, -3356.315595664453, 15129.918173541806, 7583.902190196775, -187500.02235174447, -187500.02235174447, -0.17, -0.788, -0.612, 192.0, 0.0, 0.0, 0.0, 0.0, 0.0, 0.0, 0.0, 0.0, 0.0, 1.6776159771711736E9, 0.0, 2023-02-28 12:26:17.171
203.0, 25740.29126647607, -4582.152316826859, 16609.38013903858, -3352.5605025959617, 15035.124425306849, 7483.900485503732, -187500.02235174447, -187500.02235174447, -0.17, -0.788, -0.612, 192.0, 0.0, 0.0, 0.0, 0.0, 0.0, 0.0, 0.0, 0.0, 0.0, 1.67761597717523E9, 0.0, 2023-02-28 12:26:17.175
204.0, 25707.65771957132, -4582.644055204875, 16380.922958960888, -3351.6217293288387, 14918.135394827772, 7403.456557209081, -187500.02235174447, -187500.02235174447, -0.17, -0.788, -0.612, 192.0, 0.0, 0.0, 0.0, 0.0, 0.0, 0.0, 0.0, 0.0, 0.0, 1.6776159771782491E9, 0.0, 2023-02-28 12:26:17.178
205.0, 25736.6255803854, -4586.868534906928, 16528.8021002772, -3357.656700331772, 14994.287788187003, 7487.968502994598, -187500.02235174447, -187500.02235174447, -0.17, -0.788, -0.612, 192.0, 0.0, 0.0, 0.0, 0.0, 0.0, 0.0, 0.0, 0.0, 0.0, 1.6776159771821804E9, 0.0, 2023-02-28 12:26:17.182
206.0, 25774.444732003776, -4586.309741295546, 16781.80149576682, -3358.99780499909, 15125.939563028762, 7577.487239538103, -187500.02235174447, -187500.02235174447, -0.17, -0.788, -0.612, 192.0, 0.0, 0.0, 0.0, 0.0, 0.0, 0.0, 0.0, 0.0, 0.0, 1.6776159771862428E9, 0.0, 2023-02-28 12:26:17.186
207.0, 25753.76936838262, -4584.499249994666, 16662.666697820034, -3355.063897974956, 15067.556806511499, 7497.177421710185, -187500.02235174447, -187500.02235174447, -0.17, -0.788, -0.612, 192.0, 0.0, 0.0, 0.0, 0.0, 0.0, 0.0, 0.0, 0.0, 0.0, 1.6776159771922789E9, 0.0, 2023-02-28 12:26:17.192
208.0, 25716.486658631165, -4585.438023261789, 16399.34079639206, -3353.6557380742715, 14934.228650835592, 7397.332179228328, -187500.02235174447, -187500.02235174447, -0.17, -0.788, -0.612, 192.0, 0.0, 0.0, 0.0, 0.0, 0.0, 0.0, 0.0, 0.0, 0.0, 1.677615977196218E9, 0.0, 2023-02-28 12:26:17.196
209.0, 25730.277684960092, -4587.963770385239, 16480.522332253735, -3357.8355142874143, 14975.288805399992, 7459.268863113984, -187500.02235174447, -187500.02235174447, -0.17200000000000001, -0.788, -0.612, 192.0, 250.0, 160.0, 231.0, 96.0, 236.0, 224.0, 0.0, 0.0, 0.0, 1.6776159771993642E9, 0.0, 2023-02-28 12:26:17.199
210.0, 25770.86845289093, -4589.170764585825, 16758.846254211217, -3360.4953718775955, 15115.769519301597, 7572.323986568927, -187500.02235174447, -187500.02235174447, -0.17200000000000001, -0.788, -0.612, 192.0, 0.0, 0.0, 0.0, 0.0, 0.0, 0.0, 0.0, 0.0, 0.0, 1.6776159772032473E9, 0.0, 2023-02-28 12:26:17.203
211.0, 25751.087159047984, -4588.142584340881, 16709.493602453902, -3356.8296857869254, 15090.959082956206, 7523.731294123089, -187500.02235174447, -187500.02235174447, -0.17200000000000001, -0.788, -0.612, 192.0, 0.0, 0.0, 0.0, 0.0, 0.0, 0.0, 0.0, 0.0, 0.0, 1.6776159772062435E9, 0.0, 2023-02-28 12:26:17.206
212.0, 25712.776269051585, -4583.649883705364, 16426.878145560997, -3351.9123020067577, 14947.259717853036, 7408.351589244794, -187500.02235174447, -187500.02235174447, -0.17200000000000001, -0.788, -0.612, 192.0, 0.0, 0.0, 0.0, 0.0, 0.0, 0.0, 0.0, 0.0, 0.0, 1.6776159772103832E9, 0.0, 2023-02-28 12:26:17.210
213.0, 25728.95893203723, -4581.638226704386, 16434.745959609267, -3353.543979351995, 14948.53376728699, 7445.142560618229, -187500.02235174447, -187500.02235174447, -0.17200000000000001, -0.788, -0.612, 192.0, 0.0, 0.0, 0.0, 0.0, 0.0, 0.0, 0.0, 0.0, 0.0, 1.6776159772142844E9, 0.0, 2023-02-28 12:26:17.214
214.0, 25771.740170924684, -4582.107613337947, 16720.02127409235, -3356.8743892758357, 15094.89298998034, 7564.567931242935, -187500.02235174447, -187500.02235174447, -0.17200000000000001, -0.788, -0.612, 192.0, 0.0, 0.0, 0.0, 0.0, 0.0, 0.0, 0.0, 0.0, 0.0, 1.677615977218248E9, 0.0, 2023-02-28 12:26:17.218
215.0, 25774.82471165952, -4578.888962136383, 16745.077579626748, -3353.678089818727, 15110.539211099054, 7547.155922312251, -187500.02235174447, -187500.02235174447, -0.17200000000000001, -0.788, -0.612, 192.0, 0.0, 0.0, 0.0, 0.0, 0.0, 0.0, 0.0, 0.0, 0.0, 1.6776159772232757E9, 0.0, 2023-02-28 12:26:17.223
216.0, 25731.43997567177, -4578.687796436286, 16463.132675067507, -3350.0124037280566, 14964.403505850258, 7426.8141301648775, -187500.02235174447, -187500.02235174447, -0.17200000000000001, -0.788, -0.612, 192.0, 0.0, 0.0, 0.0, 0.0, 0.0, 0.0, 0.0, 0.0, 0.0, 1.6776159772283068E9, 0.0, 2023-02-28 12:26:17.228
217.0, 25730.411795426822, -4580.028901103604, 16401.464212115316, -3351.8228950289367, 14930.562964744922, 7427.797606920912, -187500.02235174447, -187500.02235174447, -0.17200000000000001, -0.788, -0.612, 192.0, 0.0, 0.0, 0.0, 0.0, 0.0, 0.0, 0.0, 0.0, 0.0, 1.677615977231258E9, 0.0, 2023-02-28 12:26:17.231
218.0, 25772.76835116963, -4583.202848816258, 16676.524779382322, -3356.9190927647464, 15070.417829801778, 7551.559215969946, -187500.02235174447, -187500.02235174447, -0.17200000000000001, -0.788, -0.612, 192.0, 0.0, 0.0, 0.0, 0.0, 0.0, 0.0, 0.0, 0.0, 0.0, 1.6776159772352767E9, 0.0, 2023-02-28 12:26:17.235
219.0, 25773.662420947843, -4585.929761639805, 16776.325318375268, -3356.9861479981123, 15125.358417672924, 7563.338585297894, -187500.02235174447, -187500.02235174447, -0.17200000000000001, -0.792, -0.612, 192.0, 250.0, 160.0, 231.0, 64.0, 236.0, 224.0, 0.0, 0.0, 0.0, 1.6776159772382517E9, 0.0, 2023-02-28 12:26:17.238
220.0, 25738.547830408555, -4583.493421494177, 16542.436664394936, -3352.3146334069534, 15007.765890093553, 7456.229025868061, -187500.02235174447, -187500.02235174447, -0.17200000000000001, -0.792, -0.612, 192.0, 0.0, 0.0, 0.0, 0.0, 0.0, 0.0, 0.0, 0.0, 0.0, 1.677615977242306E9, 0.0, 2023-02-28 12:26:17.242
221.0, 25728.95893203723, -4585.438023261789, 16462.752695411767, -3353.7898485410037, 14967.398639607269, 7444.494360029025, -187500.02235174447, -187500.02235174447, -0.17200000000000001, -0.792, -0.612, 192.0, 0.0, 0.0, 0.0, 0.0, 0.0, 0.0, 0.0, 0.0, 0.0, 1.6776159772463543E9, 0.0, 2023-02-28 12:26:17.246
222.0, 25761.05603707505, -4586.4438517622775, 16619.99721765485, -3357.4778863761294, 15047.619050457366, 7520.400884199248, -187500.02235174447, -187500.02235174447, -0.17200000000000001, -0.792, -0.612, 192.0, 0.0, 0.0, 0.0, 0.0, 0.0, 0.0, 0.0, 0.0, 0.0, 1.677615977253392E9, 0.0, 2023-02-28 12:26:17.253
223.0, 25772.81305465854, -4585.996816873171, 16698.273026737337, -3357.388479398308, 15089.237998633147, 7537.410561729737, -187500.02235174447, -187500.02235174447, -0.17200000000000001, -0.792, -0.612, 192.0, 0.0, 0.0, 0.0, 0.0, 0.0, 0.0, 0.0, 0.0, 0.0, 1.6776159772572975E9, 0.0, 2023-02-28 12:26:17.257
224.0, 25745.543926423066, -4586.1532790843585, 16549.99155402083, -3354.6615665747604, 15010.693968617199, 7467.360194606805, -187500.02235174447, -187500.02235174447, -0.17200000000000001, -0.792, -0.612, 192.0, 0.0, 0.0, 0.0, 0.0, 0.0, 0.0, 0.0, 0.0, 0.0, 1.677615977260443E9, 0.0, 2023-02-28 12:26:17.260
225.0, 25732.66932161681, -4586.488555251188, 16455.376619741513, -3355.063897974956, 14958.882624969796, 7441.5439297609255, -187500.02235174447, -187500.02235174447, -0.17200000000000001, -0.792, -0.612, 192.0, 0.0, 0.0, 0.0, 0.0, 0.0, 0.0, 0.0, 0.0, 0.0, 1.6776159772633443E9, 0.0, 2023-02-28 12:26:17.263
226.0, 25754.5293276941, -4588.09788085197, 16589.95647310692, -3358.1707904542436, 15025.379064724335, 7510.476709661092, -187500.02235174447, -187500.02235174447, -0.17200000000000001, -0.792, -0.612, 192.0, 0.0, 0.0, 0.0, 0.0, 0.0, 0.0, 0.0, 0.0, 0.0, 1.6776159772672858E9, 0.0, 2023-02-28 12:26:17.267
227.0, 25774.95882212625, -4588.924895396816, 16704.084480295718, -3358.8860462768134, 15085.482905564655, 7546.999460101064, -187500.02235174447, -187500.02235174447, -0.17200000000000001, -0.792, -0.612, 192.0, 0.0, 0.0, 0.0, 0.0, 0.0, 0.0, 0.0, 0.0, 0.0, 1.6776159772703369E9, 0.0, 2023-02-28 12:26:17.270
228.0, 25750.796586370063, -4587.829659918507, 16581.842789869643, -3355.2650636750536, 15025.714340891165, 7480.748889535534, -187500.02235174447, -187500.02235174447, -0.17200000000000001, -0.792, -0.612, 192.0, 0.0, 0.0, 0.0, 0.0, 0.0, 0.0, 0.0, 0.0, 0.0, 1.677615977274288E9, 0.0, 2023-02-28 12:26:17.274
229.0, 25717.917170276305, -4589.9083721528505, 16455.130750552507, -3355.6003398418834, 14957.318002857925, 7436.872415169766, -187500.02235174447, -187500.02235174447, -0.17400000000000002, -0.788, -0.612, 192.0, 250.0, 144.0, 231.0, 96.0, 236.0, 224.0, 0.0, 0.0, 0.0, 1.6776159772793164E9, 0.0, 2023-02-28 12:26:17.279
230.0, 25738.05609203054, -4591.361235542445, 16557.94877504692, -3358.7295840656266, 15009.397567438791, 7496.0151309985085, -187500.02235174447, -187500.02235174447, -0.17400000000000002, -0.788, -0.612, 192.0, 0.0, 0.0, 0.0, 0.0, 0.0, 0.0, 0.0, 0.0, 0.0, 1.6776159772833364E9, 0.0, 2023-02-28 12:26:17.283
231.0, 25765.52638596611, -4592.165898342836, 16702.944541328496, -3361.0094620000677, 15085.70642300921, 7545.054858333452, -187500.02235174447, -187500.02235174447, -0.17400000000000002, -0.788, -0.612, 192.0, 0.0, 0.0, 0.0, 0.0, 0.0, 0.0, 0.0, 0.0, 0.0, 1.6776159772873197E9, 0.0, 2023-02-28 12:26:17.287
232.0, 25746.505051434644, -4592.612933231942, 16617.829098442686, -3359.7354125661154, 15040.377085253846, 7491.231857685073, -187500.02235174447, -187500.02235174447, -0.17400000000000002, -0.788, -0.612, 192.0, 0.0, 0.0, 0.0, 0.0, 0.0, 0.0, 0.0, 0.0, 0.0, 1.6776159772904108E9, 0.0, 2023-02-28 12:26:17.290
233.0, 25725.449708157746, -4593.149375098869, 16465.50195997977, -3358.930749765724, 14959.10614241435, 7434.324316301861, -187500.02235174447, -187500.02235174447, -0.17400000000000002, -0.788, -0.612, 192.0, 0.0, 0.0, 0.0, 0.0, 0.0, 0.0, 0.0, 0.0, 0.0, 1.677615977294448E9, 0.0, 2023-02-28 12:26:17.294
234.0, 25739.71012112023, -4594.6022384884645, 16530.634943322533, -3362.328214922931, 14989.593921851389, 7478.133735434263, -187500.02235174447, -187500.02235174447, -0.17400000000000002, -0.788, -0.612, 192.0, 0.0, 0.0, 0.0, 0.0, 0.0, 0.0, 0.0, 0.0, 0.0, 1.6776159773004632E9, 0.0, 2023-02-28 12:26:17.300
235.0, 25763.872356876418, -4595.116328610937, 16694.853209835674, -3363.803430056981, 15075.5587310265, 7543.06555307693, -187500.02235174447, -187500.02235174447, -0.17400000000000002, -0.788, -0.612, 192.0, 0.0, 0.0, 0.0, 0.0, 0.0, 0.0, 0.0, 0.0, 0.0, 1.677615977303486E9, 0.0, 2023-02-28 12:26:17.303
236.0, 25754.48462420519, -4593.685816965797, 16647.892194735075, -3360.4953718775955, 15055.97860288365, 7504.955828780631, -187500.02235174447, -187500.02235174447, -0.17400000000000002, -0.788, -0.612, 192.0, 0.0, 0.0, 0.0, 0.0, 0.0, 0.0, 0.0, 0.0, 0.0, 1.677615977307338E9, 0.0, 2023-02-28 12:26:17.307
237.0, 25727.28255120308, -4591.920029153827, 16481.59521598759, -3358.8189910434476, 14968.046840196472, 7439.398162293215, -187500.02235174447, -187500.02235174447, -0.17400000000000002, -0.788, -0.612, 192.0, 0.0, 0.0, 0.0, 0.0, 0.0, 0.0, 0.0, 0.0, 0.0, 1.67761597731235E9, 0.0, 2023-02-28 12:26:17.312
238.0, 25744.605153155942, -4589.52839249711, 16504.438698820915, -3359.646005588294, 14978.708622301654, 7467.270787628983, -187500.02235174447, -187500.02235174447, -0.17400000000000002, -0.788, -0.612, 192.0, 0.0, 0.0, 0.0, 0.0, 0.0, 0.0, 0.0, 0.0, 0.0, 1.677615977315353E9, 0.0, 2023-02-28 12:26:17.315
239.0, 25762.5312522091, -4592.992912887682, 16674.647232848078, -3362.4623253896625, 15065.612204743888, 7534.638945417279, -187500.02235174447, -187500.02235174447, -0.17400000000000002, -0.788, -0.614, 192.0, 250.0, 144.0, 231.0, 96.0, 236.0, 208.0, 0.0, 0.0, 0.0, 1.6776159773183396E9, 0.0, 2023-02-28 12:26:17.318
240.0, 25758.217365529224, -4592.523526254121, 16669.126351967618, -3359.7577643105706, 15065.701611721708, 7512.063683517419, -187500.02235174447, -187500.02235174447, -0.17400000000000002, -0.788, -0.614, 192.0, 0.0, 0.0, 0.0, 0.0, 0.0, 0.0, 0.0, 0.0, 0.0, 1.6776159773223336E9, 0.0, 2023-02-28 12:26:17.322
241.0, 25741.364150209924, -4588.142584340881, 16497.956692928874, -3355.287415419509, 14980.317947902437, 7438.705258215101, -187500.02235174447, -187500.02235174447, -0.17400000000000002, -0.788, -0.614, 192.0, 0.0, 0.0, 0.0, 0.0, 0.0, 0.0, 0.0, 0.0, 0.0, 1.677615977326477E9, 0.0, 2023-02-28 12:26:17.326
242.0, 25742.973475810704, -4589.707206452752, 16479.58355898661, -3356.293243919998, 14971.15373267576, 7449.478799042559, -187500.02235174447, -187500.02235174447, -0.17400000000000002, -0.788, -0.614, 192.0, 0.0, 0.0, 0.0, 0.0, 0.0, 0.0, 0.0, 0.0, 0.0, 1.6776159773303688E9, 0.0, 2023-02-28 12:26:17.330
243.0, 25764.252336532158, -4592.344712298478, 16645.321744122713, -3359.71306082166, 15058.213777329182, 7521.496119677558, -187500.02235174447, -187500.02235174447, -0.17400000000000002, -0.788, -0.614, 192.0, 0.0, 0.0, 0.0, 0.0, 0.0, 0.0, 0.0, 0.0, 0.0, 1.6776159773363695E9, 0.0, 2023-02-28 12:26:17.336
244.0, 25759.938449852285, -4592.903505909861, 16684.705517852966, -3359.37778465483, 15079.447934561722, 7519.193889998662, -187500.02235174447, -187500.02235174447, -0.17400000000000002, -0.788, -0.614, 192.0, 0.0, 0.0, 0.0, 0.0, 0.0, 0.0, 0.0, 0.0, 0.0, 1.6776159773393626E9, 0.0, 2023-02-28 12:26:17.339
245.0, 25734.70333036224, -4592.09884310947, 16522.498908340804, -3357.053203231478, 14994.801878309474, 7447.020107152475, -187500.02235174447, -187500.02235174447, -0.17400000000000002, -0.788, -0.614, 192.0, 0.0, 0.0, 0.0, 0.0, 0.0, 0.0, 0.0, 0.0, 0.0, 1.6776159773424313E9, 0.0, 2023-02-28 12:26:17.342
246.0, 25733.563391395022, -4593.3728925434225, 16461.053962833164, -3358.2378456876095, 14959.19554939217, 7438.414685537182, -187500.02235174447, -187500.02235174447, -0.17400000000000002, -0.788, -0.614, 192.0, 0.0, 0.0, 0.0, 0.0, 0.0, 0.0, 0.0, 0.0, 0.0, 1.6776159773464935E9, 0.0, 2023-02-28 12:26:17.346
247.0, 25754.976362583206, -4596.81506118954, 16611.43649952847, -3360.875351533336, 15036.756102652087, 7509.090901504863, -187500.02235174447, -187500.02235174447, -0.17400000000000002, -0.788, -0.614, 192.0, 0.0, 0.0, 0.0, 0.0, 0.0, 0.0, 0.0, 0.0, 0.0, 1.6776159773504531E9, 0.0, 2023-02-28 12:26:17.350
248.0, 25763.24650803167, -4596.077453622514, 16693.57916040172, -3359.8024677994813, 15082.532475296555, 7526.368799968815, -187500.02235174447, -187500.02235174447, -0.17400000000000002, -0.788, -0.614, 192.0, 0.0, 0.0, 0.0, 0.0, 0.0, 0.0, 0.0, 0.0, 0.0, 1.6776159773544407E9, 0.0, 2023-02-28 12:26:17.354
249.0, 25737.921981563806, -4594.959866399749, 16550.773865076764, -3357.053203231478, 15007.765890093553, 7455.603177023313, -187500.02235174447, -187500.02235174447, -0.176, -0.79, -0.612, 192.0, 250.0, 128.0, 231.0, 80.0, 236.0, 224.0, 0.0, 0.0, 0.0, 1.6776159773584957E9, 0.0, 2023-02-28 12:26:17.358
250.0, 25734.971551295705, -4593.3728925434225, 16452.359134240047, -3357.7237555651377, 14955.10518015685, 7427.8646621542775, -187500.02235174447, -187500.02235174447, -0.176, -0.79, -0.612, 192.0, 0.0, 0.0, 0.0, 0.0, 0.0, 0.0, 0.0, 0.0, 0.0, 1.6776159773624425E9, 0.0, 2023-02-28 12:26:17.362
251.0, 25761.525423708612, -4595.362197799945, 16579.875836357576, -3361.52355212254, 15019.388797210313, 7491.835354785366, -187500.02235174447, -187500.02235174447, -0.176, -0.79, -0.612, 192.0, 0.0, 0.0, 0.0, 0.0, 0.0, 0.0, 0.0, 0.0, 0.0, 1.677615977367416E9, 0.0, 2023-02-28 12:26:17.367
252.0, 25765.369923754923, -4601.106596124959, 16698.96593081545, -3363.3340434234196, 15080.677280506765, 7528.134587780784, -187500.02235174447, -187500.02235174447, -0.176, -0.79, -0.612, 192.0, 0.0, 0.0, 0.0, 0.0, 0.0, 0.0, 0.0, 0.0, 0.0, 1.6776159773704107E9, 0.0, 2023-02-28 12:26:17.370
253.0, 25728.020158770105, -4602.380645558911, 16583.094487559138, -3361.590607355906, 15022.138061778316, 7467.248435884529, -187500.02235174447, -187500.02235174447, -0.176, -0.79, -0.612, 192.0, 0.0, 0.0, 0.0, 0.0, 0.0, 0.0, 0.0, 0.0, 0.0, 1.6776159773744285E9, 0.0, 2023-02-28 12:26:17.374
254.0, 25725.248542457648, -4596.278619322613, 16451.912099350942, -3359.578950354928, 14955.753380746053, 7426.791778420423, -187500.02235174447, -187500.02235174447, -0.176, -0.79, -0.612, 192.0, 0.0, 0.0, 0.0, 0.0, 0.0, 0.0, 0.0, 0.0, 0.0, 1.677615977378486E9, 0.0, 2023-02-28 12:26:17.378
255.0, 25754.641086416377, -4593.931686154805, 16548.583394120145, -3362.328214922931, 15007.184744737715, 7482.335863391861, -187500.02235174447, -187500.02235174447, -0.176, -0.79, -0.612, 192.0, 0.0, 0.0, 0.0, 0.0, 0.0, 0.0, 0.0, 0.0, 0.0, 1.6776159773824246E9, 0.0, 2023-02-28 12:26:17.382
0.0, 25784.123037352925, -4593.283485565601, 16695.00967204686, -3363.4010986567855, 15086.22051313168, 7532.269660505017, -187500.02235174447, -187500.02235174447, -0.176, -0.79, -0.612, 192.0, 0.0, 0.0, 0.0, 0.0, 0.0, 0.0, 0.0, 0.0, 0.0, 1.6776159773864765E9, 0.0, 2023-02-28 12:26:17.386
1.0, 25762.710066164742, -4593.842279176984, 16612.844659429153, -3360.2047991996765, 15045.428579500745, 7482.089994202852, -187500.02235174447, -187500.02235174447, -0.176, -0.79, -0.612, 192.0, 0.0, 0.0, 0.0, 0.0, 0.0, 0.0, 0.0, 0.0, 0.0, 1.6776159773904424E9, 0.0, 2023-02-28 12:26:17.390
2.0, 25727.461365158724, -4595.876287922417, 16459.221119787828, -3359.5118951215622, 14963.285918627493, 7424.310734785883, -187500.02235174447, -187500.02235174447, -0.176, -0.79, -0.612, 192.0, 0.0, 0.0, 0.0, 0.0, 0.0, 0.0, 0.0, 0.0, 0.0, 1.6776159773954768E9, 0.0, 2023-02-28 12:26:17.395
3.0, 25742.057054288038, -4594.870459421928, 16520.040216450718, -3362.1717527117435, 14993.594884108888, 7465.840275983844, -187500.02235174447, -187500.02235174447, -0.176, -0.79, -0.612, 192.0, 0.0, 0.0, 0.0, 0.0, 0.0, 0.0, 0.0, 0.0, 0.0, 1.6776159773985157E9, 0.0, 2023-02-28 12:26:17.398
4.0, 25766.107531321948, -4595.362197799945, 16684.034965519306, -3364.1163544793553, 15078.620920016876, 7529.207471514639, -187500.02235174447, -187500.02235174447, -0.178, -0.79, -0.612, 192.0, 250.0, 112.0, 231.0, 80.0, 236.0, 224.0, 0.0, 0.0, 0.0, 1.677615977401461E9, 0.0, 2023-02-28 12:26:17.401
5.0, 25755.557507939044, -4594.691645466286, 16643.01951444382, -3361.836476544914, 15058.638460473832, 7492.818831541399, -187500.02235174447, -187500.02235174447, -0.178, -0.79, -0.612, 192.0, 0.0, 0.0, 0.0, 0.0, 0.0, 0.0, 0.0, 0.0, 0.0, 1.6776159774064312E9, 0.0, 2023-02-28 12:26:17.406
6.0, 25732.065824516514, -4593.641113476886, 16477.147218840983, -3359.5118951215622, 14968.985613463596, 7429.071656354864, -187500.02235174447, -187500.02235174447, -0.178, -0.79, -0.612, 192.0, 0.0, 0.0, 0.0, 0.0, 0.0, 0.0, 0.0, 0.0, 0.0, 1.6776159774105282E9, 0.0, 2023-02-28 12:26:17.410
7.0, 25753.121167793415, -4591.875325664917, 16495.721518483344, -3360.8306480444253, 14975.042936210983, 7455.849046212322, -187500.02235174447, -187500.02235174447, -0.178, -0.79, -0.612, 192.0, 0.0, 0.0, 0.0, 0.0, 0.0, 0.0, 0.0, 0.0, 0.0, 1.677615977416469E9, 0.0, 2023-02-28 12:26:17.416
8.0, 25784.05598211956, -4592.523526254121, 16665.281851921303, -3362.3952701562966, 15067.199178600215, 7528.581622669891, -187500.02235174447, -187500.02235174447, -0.178, -0.79, -0.612, 192.0, 0.0, 0.0, 0.0, 0.0, 0.0, 0.0, 0.0, 0.0, 0.0, 1.6776159774194517E9, 0.0, 2023-02-28 12:26:17.419
9.0, 25777.708086694252, -4590.936552397794, 16668.612261845145, -3360.4506683886852, 15072.02715540256, 7511.169613739206, -187500.02235174447, -187500.02235174447, -0.178, -0.79, -0.612, 192.0, 0.0, 0.0, 0.0, 0.0, 0.0, 0.0, 0.0, 0.0, 0.0, 1.6776159774234693E9, 0.0, 2023-02-28 12:26:17.423
10.0, 25760.81016788604, -4587.226162818213, 16500.258922607773, -3356.80733404247, 14987.649320083776, 7437.230043081051, -187500.02235174447, -187500.02235174447, -0.178, -0.79, -0.612, 192.0, 0.0, 0.0, 0.0, 0.0, 0.0, 0.0, 0.0, 0.0, 0.0, 1.6776159774265044E9, 0.0, 2023-02-28 12:26:17.426
11.0, 25761.637182430888, -4586.175630828814, 16474.196788572885, -3357.1873136982103, 14974.841770510886, 7442.437999539137, -187500.02235174447, -187500.02235174447, -0.178, -0.79, -0.612, 192.0, 0.0, 0.0, 0.0, 0.0, 0.0, 0.0, 0.0, 0.0, 0.0, 1.6776159774305704E9, 0.0, 2023-02-28 12:26:17.430
12.0, 25773.751827925662, -4587.159107584847, 16637.275116118803, -3359.5565986104725, 15057.342059295424, 7515.841128330366, -187500.02235174447, -187500.02235174447, -0.178, -0.79, -0.612, 192.0, 0.0, 0.0, 0.0, 0.0, 0.0, 0.0, 0.0, 0.0, 0.0, 1.677615977434511E9, 0.0, 2023-02-28 12:26:17.434
13.0, 25772.187205813792, -4587.695549451774, 16684.258482963858, -3358.8860462768134, 15083.806524730508, 7516.601087641846, -187500.02235174447, -187500.02235174447, -0.178, -0.79, -0.612, 192.0, 0.0, 0.0, 0.0, 0.0, 0.0, 0.0, 0.0, 0.0, 0.0, 1.6776159774385164E9, 0.0, 2023-02-28 12:26:17.438
14.0, 25745.275705489603, -4584.767470928129, 16523.571792074657, -3354.9744909971346, 15001.775622579531, 7443.667345484179, -187500.02235174447, -187500.02235174447, -0.182, -0.786, -0.612, 192.0, 250.0, 80.0, 231.0, 112.0, 236.0, 224.0, 0.0, 0.0, 0.0, 1.677615977442541E9, 0.0, 2023-02-28 12:26:17.442
15.0, 25744.38163571139, -4583.225200560713, 16456.337744753095, -3355.2650636750536, 14966.661032040243, 7428.915194143677, -187500.02235174447, -187500.02235174447, -0.182, -0.786, -0.612, 192.0, 0.0, 0.0, 0.0, 0.0, 0.0, 0.0, 0.0, 0.0, 0.0, 1.6776159774465313E9, 0.0, 2023-02-28 12:26:17.446
16.0, 25775.607022715452, -4583.985159872193, 16604.79803142524, -3356.941444509202, 15044.534509722533, 7499.6584653447235, -187500.02235174447, -187500.02235174447, -0.182, -0.786, -0.612, 192.0, 0.0, 0.0, 0.0, 0.0, 0.0, 0.0, 0.0, 0.0, 0.0, 1.677615977450549E9, 0.0, 2023-02-28 12:26:17.450
17.0, 25773.595365714475, -4588.276694807612, 16693.243884234893, -3357.768459054048, 15092.143725412338, 7515.908183563732, -187500.02235174447, -187500.02235174447, -0.182, -0.786, -0.612, 192.0, 0.0, 0.0, 0.0, 0.0, 0.0, 0.0, 0.0, 0.0, 0.0, 1.6776159774545083E9, 0.0, 2023-02-28 12:26:17.454
18.0, 25740.984170554184, -4591.942380898283, 16554.126626745063, -3357.2096654426655, 15018.338265220913, 7442.348592561316, -187500.02235174447, -187500.02235174447, -0.182, -0.786, -0.612, 192.0, 0.0, 0.0, 0.0, 0.0, 0.0, 0.0, 0.0, 0.0, 0.0, 1.6776159774575264E9, 0.0, 2023-02-28 12:26:17.457
19.0, 25732.84813557245, -4592.076491365015, 16449.8333871166, -3359.020156743545, 14959.776694748009, 7409.938563101121, -187500.02235174447, -187500.02235174447, -0.182, -0.786, -0.612, 192.0, 0.0, 0.0, 0.0, 0.0, 0.0, 0.0, 0.0, 0.0, 0.0, 1.6776159774635503E9, 0.0, 2023-02-28 12:26:17.463
20.0, 25759.402007985354, -4593.216430332235, 16573.57264442118, -3362.3058631784756, 15021.556916422478, 7479.38543312376, -187500.02235174447, -187500.02235174447, -0.182, -0.786, -0.612, 192.0, 0.0, 0.0, 0.0, 0.0, 0.0, 0.0, 0.0, 0.0, 0.0, 1.6776159774665844E9, 0.0, 2023-02-28 12:26:17.466
21.0, 25765.928717366307, -4598.647904234875, 16698.027157548328, -3364.2728166905426, 15085.147629397827, 7517.048122530952, -187500.02235174447, -187500.02235174447, -0.182, -0.786, -0.612, 192.0, 0.0, 0.0, 0.0, 0.0, 0.0, 0.0, 0.0, 0.0, 0.0, 1.6776159774715908E9, 0.0, 2023-02-28 12:26:17.471
22.0, 25747.779100868596, -4600.033712391104, 16588.414202739503, -3361.90353177828, 15024.373236223846, 7457.346613090827, -187500.02235174447, -187500.02235174447, -0.182, -0.786, -0.612, 192.0, 0.0, 0.0, 0.0, 0.0, 0.0, 0.0, 0.0, 0.0, 0.0, 1.6776159774776683E9, 0.0, 2023-02-28 12:26:17.477
23.0, 25733.406929183835, -4601.91125892535, 16453.700238907368, -3361.3670899113527, 14951.774770233009, 7417.89578412721, -187500.02235174447, -187500.02235174447, -0.182, -0.786, -0.612, 192.0, 0.0, 0.0, 0.0, 0.0, 0.0, 0.0, 0.0, 0.0, 0.0, 1.677615977480574E9, 0.0, 2023-02-28 12:26:17.480
24.0, 25745.61098165643, -4601.084244380503, 16545.6553155965, -3363.9822440126236, 14997.752308577576, 7474.959787721609, -187500.02235174447, -187500.02235174447, -0.17, -0.784, -0.612, 192.0, 250.0, 176.0, 231.0, 128.0, 236.0, 224.0, 0.0, 0.0, 0.0, 1.6776159774845388E9, 0.0, 2023-02-28 12:26:17.484
25.0, 25778.803322172564, -4598.916125168339, 16696.73075636992, -3366.485639391618, 15075.268158348581, 7524.15597726774, -187500.02235174447, -187500.02235174447, -0.17, -0.784, -0.612, 192.0, 0.0, 0.0, 0.0, 0.0, 0.0, 0.0, 0.0, 0.0, 0.0, 1.6776159774875653E9, 0.0, 2023-02-28 12:26:17.487
26.0, 25779.786798928595, -4597.709130967753, 16622.00887465583, -3364.0269475015343, 15036.867861374363, 7469.751831263523, -187500.02235174447, -187500.02235174447, -0.17, -0.784, -0.612, 192.0, 0.0, 0.0, 0.0, 0.0, 0.0, 0.0, 0.0, 0.0, 0.0, 1.6776159774926038E9, 0.0, 2023-02-28 12:26:17.492
27.0, 25740.693597876263, -4599.1843461018025, 16462.439770989393, -3362.842305045403, 14954.881662712296, 7412.866641624766, -187500.02235174447, -187500.02235174447, -0.17, -0.784, -0.612, 192.0, 0.0, 0.0, 0.0, 0.0, 0.0, 0.0, 0.0, 0.0, 0.0, 1.6776159774965787E9, 0.0, 2023-02-28 12:26:17.496
28.0, 25755.110473049936, -4596.993875145183, 16516.285123382226, -3364.4292789017295, 14983.737764804098, 7453.971499678076, -187500.02235174447, -187500.02235174447, -0.17, -0.784, -0.612, 192.0, 0.0, 0.0, 0.0, 0.0, 0.0, 0.0, 0.0, 0.0, 0.0, 1.6776159774995608E9, 0.0, 2023-02-28 12:26:17.499
29.0, 25795.16479911385, -4592.210601831746, 16682.87267480763, -3365.770383569048, 15072.965928669684, 7515.125872507796, -187500.02235174447, -187500.02235174447, -0.17, -0.784, -0.612, 192.0, 0.0, 0.0, 0.0, 0.0, 0.0, 0.0, 0.0, 0.0, 0.0, 1.677615977502567E9, 0.0, 2023-02-28 12:26:17.502
30.0, 25783.497188508176, -4585.303912795057, 16648.987430213383, -3363.0881742344113, 15059.063143618483, 7472.255226642517, -187500.02235174447, -187500.02235174447, -0.17, -0.784, -0.612, 192.0, 0.0, 0.0, 0.0, 0.0, 0.0, 0.0, 0.0, 0.0, 0.0, 1.6776159775066051E9, 0.0, 2023-02-28 12:26:17.506
31.0, 25752.160042781838, -4584.678063950309, 16480.00824213126, -3359.7801160550257, 14970.840808253386, 7404.082406053831, -187500.02235174447, -187500.02235174447, -0.17, -0.784, -0.612, 192.0, 0.0, 0.0, 0.0, 0.0, 0.0, 0.0, 0.0, 0.0, 0.0, 1.6776159775106204E9, 0.0, 2023-02-28 12:26:17.510
32.0, 25763.402970242856, -4585.996816873171, 16491.586445759112, -3361.300034677987, 14974.081811199405, 7430.792740677923, -187500.02235174447, -187500.02235174447, -0.17, -0.784, -0.612, 192.0, 0.0, 0.0, 0.0, 0.0, 0.0, 0.0, 0.0, 0.0, 0.0, 1.677615977513555E9, 0.0, 2023-02-28 12:26:17.513
33.0, 25784.6371274754, -4586.846183162473, 16661.750276297364, -3363.8257818014363, 15059.867806418873, 7507.101596248341, -187500.02235174447, -187500.02235174447, -0.17, -0.784, -0.612, 192.0, 0.0, 0.0, 0.0, 0.0, 0.0, 0.0, 0.0, 0.0, 0.0, 1.67761597751858E9, 0.0, 2023-02-28 12:26:17.518
34.0, 25792.616700245944, -4584.298084294568, 16669.796904301274, -3361.970587011646, 15065.478094277156, 7493.19881119714, -187500.02235174447, -187500.02235174447, -0.166, -0.786, -0.616, 192.0, 250.0, 208.0, 231.0, 112.0, 236.0, 192.0, 0.0, 0.0, 0.0, 1.6776159775226593E9, 0.0, 2023-02-28 12:26:17.522
35.0, 25788.503979266166, -4583.918104638828, 16499.677777251934, -3360.003633499579, 14976.540503089489, 7418.298115527406, -187500.02235174447, -187500.02235174447, -0.166, -0.786, -0.616, 192.0, 0.0, 0.0, 0.0, 0.0, 0.0, 0.0, 0.0, 0.0, 0.0, 1.677615977526654E9, 0.0, 2023-02-28 12:26:17.526
36.0, 25797.332918326014, -4582.308779038046, 16467.7371344253, -3360.383613155319, 14958.793217991975, 7423.103740585297, -187500.02235174447, -187500.02235174447, -0.166, -0.786, -0.616, 192.0, 0.0, 0.0, 0.0, 0.0, 0.0, 0.0, 0.0, 0.0, 0.0, 1.67761597753064E9, 0.0, 2023-02-28 12:26:17.530
37.0, 25832.58161933203, -4583.649883705364, 16631.463662560425, -3362.5070288785732, 15044.087474833426, 7494.383453653271, -187500.02235174447, -187500.02235174447, -0.166, -0.786, -0.616, 192.0, 0.0, 0.0, 0.0, 0.0, 0.0, 0.0, 0.0, 0.0, 0.0, 1.677615977533598E9, 0.0, 2023-02-28 12:26:17.533
38.0, 25836.292008911612, -4582.152316826859, 16683.5879306302, -3360.383613155319, 15077.190408371736, 7494.204639697628, -187500.02235174447, -187500.02235174447, -0.166, -0.786, -0.616, 192.0, 0.0, 0.0, 0.0, 0.0, 0.0, 0.0, 0.0, 0.0, 0.0, 1.6776159775376143E9, 0.0, 2023-02-28 12:26:17.537
39.0, 25793.220197346236, -4580.140659825881, 16523.705902541387, -3356.6061683423723, 14994.198381209182, 7420.935621373132, -187500.02235174447, -187500.02235174447, -0.166, -0.786, -0.616, 192.0, 0.0, 0.0, 0.0, 0.0, 0.0, 0.0, 0.0, 0.0, 0.0, 1.6776159775416498E9, 0.0, 2023-02-28 12:26:17.541
40.0, 25797.936415426306, -4584.186325572291, 16451.755637139755, -3357.9472730096904, 14951.350087088358, 7407.435167722127, -187500.02235174447, -187500.02235174447, -0.166, -0.786, -0.616, 192.0, 0.0, 0.0, 0.0, 0.0, 0.0, 0.0, 0.0, 0.0, 0.0, 1.677615977545664E9, 0.0, 2023-02-28 12:26:17.545
41.0, 25850.26184919618, -4587.0920523514815, 16600.841772656655, -3361.277682933531, 15025.468471702156, 7471.38350860876, -187500.02235174447, -187500.02235174447, -0.166, -0.786, -0.616, 192.0, 0.0, 0.0, 0.0, 0.0, 0.0, 0.0, 0.0, 0.0, 0.0, 1.6776159775506148E9, 0.0, 2023-02-28 12:26:17.550
42.0, 25885.756419391208, -4583.247552305169, 16694.093250524194, -3360.607130599872, 15075.581082770954, 7493.221162941595, -187500.02235174447, -187500.02235174447, -0.166, -0.786, -0.616, 192.0, 0.0, 0.0, 0.0, 0.0, 0.0, 0.0, 0.0, 0.0, 0.0, 1.6776159775546029E9, 0.0, 2023-02-28 12:26:17.554
43.0, 25838.795404290606, -4584.454546505755, 16556.69707735742, -3358.7966392989924, 15002.960265035663, 7424.154272574696, -187500.02235174447, -187500.02235174447, -0.166, -0.786, -0.616, 192.0, 0.0, 0.0, 0.0, 0.0, 0.0, 0.0, 0.0, 0.0, 0.0, 1.6776159775586228E9, 0.0, 2023-02-28 12:26:17.558
44.0, 25757.189185284282, -4583.471069749721, 16446.279459748206, -3358.28254917652, 14944.845729451863, 7392.571257659347, -187500.02235174447, -187500.02235174447, -0.168, -0.786, -0.618, 192.0, 250.0, 192.0, 231.0, 112.0, 236.0, 176.0, 0.0, 0.0, 0.0, 1.6776159775627277E9, 0.0, 2023-02-28 12:26:17.562
45.0, 25805.4913050522, -4583.694587194274, 16567.269452484783, -3363.6022643568836, 15008.391738938302, 7444.7178774735785, -187500.02235174447, -187500.02235174447, -0.168, -0.786, -0.618, 192.0, 0.0, 0.0, 0.0, 0.0, 0.0, 0.0, 0.0, 0.0, 0.0, 1.677615977566624E9, 0.0, 2023-02-28 12:26:17.566
46.0, 25845.97031426076, -4586.577962229009, 16695.143782513594, -3363.892837034802, 15074.59760601492, 7493.936418764165, -187500.02235174447, -187500.02235174447, -0.168, -0.786, -0.618, 192.0, 0.0, 0.0, 0.0, 0.0, 0.0, 0.0, 0.0, 0.0, 0.0, 1.6776159775696392E9, 0.0, 2023-02-28 12:26:17.569
47.0, 25791.119133367436, -4584.409843016844, 16586.42489748298, -3362.0823457339225, 15020.573439666445, 7426.434150509138, -187500.02235174447, -187500.02235174447, -0.168, -0.786, -0.618, 192.0, 0.0, 0.0, 0.0, 0.0, 0.0, 0.0, 0.0, 0.0, 0.0, 1.6776159775736246E9, 0.0, 2023-02-28 12:26:17.573
48.0, 25836.06849146706, -4586.779127929107, 16449.565166183136, -3363.4681538901514, 14944.264584096025, 7373.907551039166, -187500.02235174447, -187500.02235174447, -0.168, -0.786, -0.618, 192.0, 0.0, 0.0, 0.0, 0.0, 0.0, 0.0, 0.0, 0.0, 0.0, 1.6776159775786595E9, 0.0, 2023-02-28 12:26:17.578
49.0, 25835.532049600133, -4594.378721043911, 16535.9546585029, -3366.105659735878, 14984.96711074914, 7431.262127311484, -187500.02235174447, -187500.02235174447, -0.168, -0.786, -0.618, 192.0, 0.0, 0.0, 0.0, 0.0, 0.0, 0.0, 0.0, 0.0, 0.0, 1.6776159775826328E9, 0.0, 2023-02-28 12:26:17.582
50.0, 25891.79139039414, -4595.00456988866, 16689.4887911664, -3368.676110348238, 15061.633594230843, 7482.827601769877, -187500.02235174447, -187500.02235174447, -0.168, -0.786, -0.618, 192.0, 0.0, 0.0, 0.0, 0.0, 0.0, 0.0, 0.0, 0.0, 0.0, 1.677615977586717E9, 0.0, 2023-02-28 12:26:17.586
51.0, 25930.79518446865, -4590.645979719875, 16619.304313576737, -3367.446764403196, 15023.479166445633, 7422.522595229459, -187500.02235174447, -187500.02235174447, -0.168, -0.786, -0.618, 192.0, 0.0, 0.0, 0.0, 0.0, 0.0, 0.0, 0.0, 0.0, 0.0, 1.677615977589671E9, 0.0, 2023-02-28 12:26:17.589
52.0, 25853.659314353386, -4592.076491365015, 16457.321221509126, -3365.7033283356823, 14942.34233407287, 7351.779324028412, -187500.02235174447, -187500.02235174447, -0.168, -0.786, -0.618, 192.0, 0.0, 0.0, 0.0, 0.0, 0.0, 0.0, 0.0, 0.0, 0.0, 1.677615977593722E9, 0.0, 2023-02-28 12:26:17.593
53.0, 25800.48451429421, -4598.62555249042, 16504.014015676265, -3366.5973981138945, 14964.783485505997, 7393.711196626568, -187500.02235174447, -187500.02235174447, -0.168, -0.786, -0.618, 192.0, 0.0, 0.0, 0.0, 0.0, 0.0, 0.0, 0.0, 0.0, 0.0, 1.6776159775976617E9, 0.0, 2023-02-28 12:26:17.597
54.0, 25791.43205778981, -4596.680950722808, 16669.439276389992, -3366.217418458154, 15042.276983532547, 7475.675043544179, -187500.02235174447, -187500.02235174447, -0.17400000000000002, -0.784, -0.618, 192.0, 250.0, 144.0, 231.0, 128.0, 236.0, 176.0, 0.0, 0.0, 0.0, 1.677615977602769E9, 0.0, 2023-02-28 12:26:17.602
55.0, 25827.507773340676, -4589.9083721528505, 16640.15849115354, -3363.803430056981, 15022.808614111975, 7448.785894964444, -187500.02235174447, -187500.02235174447, -0.17400000000000002, -0.784, -0.618, 192.0, 0.0, 0.0, 0.0, 0.0, 0.0, 0.0, 0.0, 0.0, 0.0, 1.677615977606679E9, 0.0, 2023-02-28 12:26:17.606
56.0, 25897.93812011935, -4592.85880242095, 16471.559282727158, -3364.0940027349, 14931.14411010076, 7367.9396352695985, -187500.02235174447, -187500.02235174447, -0.17400000000000002, -0.784, -0.618, 192.0, 0.0, 0.0, 0.0, 0.0, 0.0, 0.0, 0.0, 0.0, 0.0, 1.6776159776107264E9, 0.0, 2023-02-28 12:26:17.610
57.0, 25897.021698596684, -4595.161032099847, 16476.610776974056, -3366.3291771804306, 14930.00417113354, 7383.272931965939, -187500.02235174447, -187500.02235174447, -0.17400000000000002, -0.784, -0.618, 192.0, 0.0, 0.0, 0.0, 0.0, 0.0, 0.0, 0.0, 0.0, 0.0, 1.6776159776146836E9, 0.0, 2023-02-28 12:26:17.614
58.0, 25898.541617219642, -4595.7198257112295, 16644.6288400446, -3368.43024115923, 15019.388797210313, 7449.255281598006, -187500.02235174447, -187500.02235174447, -0.17400000000000002, -0.784, -0.618, 192.0, 0.0, 0.0, 0.0, 0.0, 0.0, 0.0, 0.0, 0.0, 0.0, 1.6776159776177464E9, 0.0, 2023-02-28 12:26:17.617
59.0, 25972.99527800027, -4594.1328518549035, 16657.59285182868, -3365.323348679942, 15023.859146101375, 7432.580880234347, -187500.02235174447, -187500.02235174447, -0.17400000000000002, -0.784, -0.618, 192.0, 0.0, 0.0, 0.0, 0.0, 0.0, 0.0, 0.0, 0.0, 0.0, 1.6776159776217008E9, 0.0, 2023-02-28 12:26:17.621
60.0, 25964.054580218148, -4589.394282030378, 16486.669061978944, -3361.836476544914, 14926.025560620496, 7364.02807998992, -187500.02235174447, -187500.02235174447, -0.17400000000000002, -0.784, -0.618, 192.0, 0.0, 0.0, 0.0, 0.0, 0.0, 0.0, 0.0, 0.0, 0.0, 1.6776159776256876E9, 0.0, 2023-02-28 12:26:17.625
61.0, 25852.228802708247, -4584.946284883772, 16447.262936504238, -3360.316557921953, 14904.14320279875, 7370.688899837602, -187500.02235174447, -187500.02235174447, -0.17400000000000002, -0.784, -0.618, 192.0, 0.0, 0.0, 0.0, 0.0, 0.0, 0.0, 0.0, 0.0, 0.0, 1.6776159776297119E9, 0.0, 2023-02-28 12:26:17.629
62.0, 25800.462162549757, -4582.107613337947, 16608.798993682743, -3362.842305045403, 14985.525904360522, 7437.297098314417, -187500.02235174447, -187500.02235174447, -0.17400000000000002, -0.784, -0.618, 192.0, 0.0, 0.0, 0.0, 0.0, 0.0, 0.0, 0.0, 0.0, 0.0, 1.677615977634719E9, 0.0, 2023-02-28 12:26:17.634
63.0, 25898.11693407499, -4581.079433093004, 16666.578253099713, -3362.9764155121347, 15009.509326161067, 7441.90155767221, -187500.02235174447, -187500.02235174447, -0.17400000000000002, -0.784, -0.618, 192.0, 0.0, 0.0, 0.0, 0.0, 0.0, 0.0, 0.0, 0.0, 0.0, 1.6776159776387107E9, 0.0, 2023-02-28 12:26:17.638
64.0, 25874.781712863653, -4577.2349330466905, 16505.399823832493, -3358.5954735988944, 14921.443453007158, 7372.007652760465, -187500.02235174447, -187500.02235174447, -0.17, -0.786, -0.61, 192.0, 250.0, 176.0, 231.0, 112.0, 236.0, 240.0, 0.0, 0.0, 0.0, 1.677615977642737E9, 0.0, 2023-02-28 12:26:17.642
65.0, 25908.55519873562, -4582.532296482599, 16422.92188679241, -3359.1766189547325, 14871.152027982716, 7352.762800784445, -187500.02235174447, -187500.02235174447, -0.17, -0.786, -0.61, 192.0, 0.0, 0.0, 0.0, 0.0, 0.0, 0.0, 0.0, 0.0, 0.0, 1.677615977645785E9, 0.0, 2023-02-28 12:26:17.645
66.0, 25795.96946191424, -4582.28642729359, 16561.636812882043, -3359.869523032847, 14944.175177118204, 7413.693656169612, -187500.02235174447, -187500.02235174447, -0.17, -0.786, -0.61, 192.0, 0.0, 0.0, 0.0, 0.0, 0.0, 0.0, 0.0, 0.0, 0.0, 1.6776159776497636E9, 0.0, 2023-02-28 12:26:17.649
67.0, 25724.577990123988, -4572.921046366817, 16660.655040819056, -3359.1989706991876, 14995.628892854322, 7436.939470403132, -187500.02235174447, -187500.02235174447, -0.17, -0.786, -0.61, 192.0, 0.0, 0.0, 0.0, 0.0, 0.0, 0.0, 0.0, 0.0, 0.0, 1.6776159776537294E9, 0.0, 2023-02-28 12:26:17.653
68.0, 25701.510989846112, -4573.85981963394, 16527.572754332155, -3357.656700331772, 14919.18592681717, 7372.879370794221, -187500.02235174447, -187500.02235174447, -0.17, -0.786, -0.61, 192.0, 0.0, 0.0, 0.0, 0.0, 0.0, 0.0, 0.0, 0.0, 0.0, 1.677615977657732E9, 0.0, 2023-02-28 12:26:17.657
69.0, 25648.492651998124, -4568.070717820015, 16409.689654074868, -3356.583816597917, 14851.7060103066, 7341.184597156596, -187500.02235174447, -187500.02235174447, -0.17, -0.786, -0.61, 192.0, 0.0, 0.0, 0.0, 0.0, 0.0, 0.0, 0.0, 0.0, 0.0, 1.6776159776627932E9, 0.0, 2023-02-28 12:26:17.662
70.0, 25623.905733097286, -4566.081412563492, 16525.561097331178, -3360.271854433043, 14902.913856853707, 7398.4050629621825, -187500.02235174447, -187500.02235174447, -0.17, -0.786, -0.61, 192.0, 0.0, 0.0, 0.0, 0.0, 0.0, 0.0, 0.0, 0.0, 0.0, 1.6776159776667287E9, 0.0, 2023-02-28 12:26:17.666
71.0, 25693.55376882002, -4568.271883520113, 16657.704610550954, -3361.7470695670927, 14964.96229946164, 7439.71108671559, -187500.02235174447, -187500.02235174447, -0.17, -0.786, -0.61, 192.0, 0.0, 0.0, 0.0, 0.0, 0.0, 0.0, 0.0, 0.0, 0.0, 1.677615977670758E9, 0.0, 2023-02-28 12:26:17.670
72.0, 25646.011608363584, -4567.020185830615, 16553.053743011205, -3359.8248195439364, 14907.786537144964, 7369.437202148105, -187500.02235174447, -187500.02235174447, -0.17, -0.786, -0.61, 192.0, 0.0, 0.0, 0.0, 0.0, 0.0, 0.0, 0.0, 0.0, 0.0, 1.6776159776747785E9, 0.0, 2023-02-28 12:26:17.674
73.0, 25596.457790906166, -4570.462354476733, 16409.622598841503, -3359.869523032847, 14827.186146639127, 7314.742483465968, -187500.02235174447, -187500.02235174447, -0.17, -0.786, -0.61, 192.0, 0.0, 0.0, 0.0, 0.0, 0.0, 0.0, 0.0, 0.0, 0.0, 1.677615977677816E9, 0.0, 2023-02-28 12:26:17.677
74.0, 25508.3695660078, -4577.503153980155, 16493.240474848804, -3363.5352091235172, 14857.361001653791, 7372.477039394026, -187500.02235174447, -187500.02235174447, -0.176, -0.786, -0.614, 192.0, 250.0, 128.0, 231.0, 112.0, 236.0, 208.0, 0.0, 0.0, 0.0, 1.6776159776818771E9, 0.0, 2023-02-28 12:26:17.681
75.0, 25411.74297472751, -4572.1834387997915, 16650.172072669517, -3362.7528980675816, 14940.24127009407, 7431.016258122476, -187500.02235174447, -187500.02235174447, -0.176, -0.786, -0.614, 192.0, 0.0, 0.0, 0.0, 0.0, 0.0, 0.0, 0.0, 0.0, 0.0, 1.6776159776858337E9, 0.0, 2023-02-28 12:26:17.685
76.0, 25244.373112246172, -4554.056174046537, 16582.62510092558, -3357.8802177763246, 14907.451260978134, 7384.479926166526, -187500.02235174447, -187500.02235174447, -0.176, -0.786, -0.614, 192.0, 0.0, 0.0, 0.0, 0.0, 0.0, 0.0, 0.0, 0.0, 0.0, 1.6776159776907494E9, 0.0, 2023-02-28 12:26:17.690
77.0, 25245.311885513293, -4555.084354291482, 16421.849003058553, -3357.9249212652353, 14812.657512743177, 7328.3770475837055, -187500.02235174447, -187500.02235174447, -0.176, -0.786, -0.614, 192.0, 0.0, 0.0, 0.0, 0.0, 0.0, 0.0, 0.0, 0.0, 0.0, 1.67761597769484E9, 0.0, 2023-02-28 12:26:17.694
78.0, 25019.872190937065, -4541.382734940378, 16463.244433789783, -3357.701403820682, 14833.93637346463, 7365.860923035255, -187500.02235174447, -187500.02235174447, -0.176, -0.786, -0.614, 192.0, 0.0, 0.0, 0.0, 0.0, 0.0, 0.0, 0.0, 0.0, 0.0, 1.6776159776987832E9, 0.0, 2023-02-28 12:26:17.698
79.0, 24954.89566980549, -4534.654859859331, 16633.542374794768, -3359.958930010668, 14922.516336741011, 7424.109569085786, -187500.02235174447, -187500.02235174447, -0.176, -0.786, -0.614, 192.0, 0.0, 0.0, 0.0, 0.0, 0.0, 0.0, 0.0, 0.0, 0.0, 1.677615977702815E9, 0.0, 2023-02-28 12:26:17.702
80.0, 24913.567294307628, -4540.667479117808, 16611.81647918421, -3359.71306082166, 14910.356987757325, 7386.379824445227, -187500.02235174447, -187500.02235174447, -0.176, -0.786, -0.614, 192.0, 0.0, 0.0, 0.0, 0.0, 0.0, 0.0, 0.0, 0.0, 0.0, 1.6776159777058792E9, 0.0, 2023-02-28 12:26:17.705
81.0, 24856.950325602334, -4539.505188406132, 16441.33972422358, -3356.8743892758357, 14815.049149399896, 7311.814404942323, -187500.02235174447, -187500.02235174447, -0.176, -0.786, -0.614, 192.0, 0.0, 0.0, 0.0, 0.0, 0.0, 0.0, 0.0, 0.0, 0.0, 1.6776159777098424E9, 0.0, 2023-02-28 12:26:17.709
82.0, 24795.32656613905, -4533.581976125476, 16441.272668990216, -3356.6061683423723, 14812.366940065258, 7327.102998149753, -187500.02235174447, -187500.02235174447, -0.176, -0.786, -0.614, 192.0, 0.0, 0.0, 0.0, 0.0, 0.0, 0.0, 0.0, 0.0, 0.0, 1.6776159777138128E9, 0.0, 2023-02-28 12:26:17.713
83.0, 24683.74665781816, -4532.866720302906, 16612.107051862127, -3357.768459054048, 14897.437679462157, 7397.555696672881, -187500.02235174447, -187500.02235174447, -0.176, -0.786, -0.614, 192.0, 0.0, 0.0, 0.0, 0.0, 0.0, 0.0, 0.0, 0.0, 0.0, 1.677615977717934E9, 0.0, 2023-02-28 12:26:17.717
84.0, 24638.506727040618, -4532.106760991426, 16633.251802116847, -3356.3379474089083, 14902.936208598163, 7390.023158791442, -187500.02235174447, -187500.02235174447, -0.176, -0.788, -0.618, 192.0, 250.0, 128.0, 231.0, 96.0, 236.0, 176.0, 0.0, 0.0, 0.0, 1.6776159777228456E9, 0.0, 2023-02-28 12:26:17.722
85.0, 24562.24257495911, -4529.312792934513, 16464.339669268094, -3353.6557380742715, 14815.563239522367, 7314.340152065773, -187500.02235174447, -187500.02235174447, -0.176, -0.788, -0.618, 192.0, 0.0, 0.0, 0.0, 0.0, 0.0, 0.0, 0.0, 0.0, 0.0, 1.677615977725871E9, 0.0, 2023-02-28 12:26:17.725
86.0, 24469.3263732584, -4523.948374265239, 16418.92092453491, -3352.6722613182383, 14797.726547447033, 7316.485919533482, -187500.02235174447, -187500.02235174447, -0.176, -0.788, -0.618, 192.0, 0.0, 0.0, 0.0, 0.0, 0.0, 0.0, 0.0, 0.0, 0.0, 1.6776159777298467E9, 0.0, 2023-02-28 12:26:17.729
87.0, 24397.21964564558, -4516.929926506273, 16578.959414834906, -3353.90160726328, 14884.607778144811, 7390.626655891736, -187500.02235174447, -187500.02235174447, -0.176, -0.788, -0.618, 192.0, 0.0, 0.0, 0.0, 0.0, 0.0, 0.0, 0.0, 0.0, 0.0, 1.677615977733842E9, 0.0, 2023-02-28 12:26:17.733
88.0, 24367.49182552002, -4510.3138101475015, 16640.650229531555, -3350.8841217618137, 14919.275333794993, 7401.221382763551, -187500.02235174447, -187500.02235174447, -0.176, -0.788, -0.618, 192.0, 0.0, 0.0, 0.0, 0.0, 0.0, 0.0, 0.0, 0.0, 0.0, 1.6776159777378128E9, 0.0, 2023-02-28 12:26:17.737
89.0, 24323.43653719861, -4510.738493292152, 16485.372660800538, -3347.486656604607, 14833.019951941962, 7330.902794707155, -187500.02235174447, -187500.02235174447, -0.176, -0.788, -0.618, 192.0, 0.0, 0.0, 0.0, 0.0, 0.0, 0.0, 0.0, 0.0, 0.0, 1.6776159777418883E9, 0.0, 2023-02-28 12:26:17.741
90.0, 24277.257833153944, -4508.235097913158, 16399.87723825899, -3345.5420548369952, 14790.126954332229, 7313.334323565284, -187500.02235174447, -187500.02235174447, -0.176, -0.788, -0.618, 192.0, 0.0, 0.0, 0.0, 0.0, 0.0, 0.0, 0.0, 0.0, 0.0, 1.6776159777468417E9, 0.0, 2023-02-28 12:26:17.746
91.0, 24185.88390182065, -4497.886240230351, 16541.721408572364, -3347.196083926688, 14862.501902878512, 7383.965836044054, -187500.02235174447, -187500.02235174447, -0.176, -0.788, -0.618, 192.0, 0.0, 0.0, 0.0, 0.0, 0.0, 0.0, 0.0, 0.0, 0.0, 1.6776159777508676E9, 0.0, 2023-02-28 12:26:17.750
92.0, 24124.595418524197, -4493.304132617013, 16646.215813900926, -3345.989089726101, 14922.561040229923, 7409.804452634389, -187500.02235174447, -187500.02235174447, -0.176, -0.788, -0.618, 192.0, 0.0, 0.0, 0.0, 0.0, 0.0, 0.0, 0.0, 0.0, 0.0, 1.6776159777538743E9, 0.0, 2023-02-28 12:26:17.753
93.0, 24042.162184973025, -4488.498507559122, 16515.83808849312, -3342.9492524801794, 14857.159835953695, 7335.820178487323, -187500.02235174447, -187500.02235174447, -0.176, -0.788, -0.618, 192.0, 0.0, 0.0, 0.0, 0.0, 0.0, 0.0, 0.0, 0.0, 0.0, 1.6776159777578683E9, 0.0, 2023-02-28 12:26:17.757
94.0, 24041.446929150454, -4491.605400038409, 16396.94915973534, -3344.335060636409, 14788.115297331251, 7295.5646867233145, -187500.02235174447, -187500.02235174447, -0.18, -0.794, -0.612, 192.0, 250.0, 96.0, 231.0, 48.0, 236.0, 224.0, 0.0, 0.0, 0.0, 1.6776159777618945E9, 0.0, 2023-02-28 12:26:17.761
95.0, 24083.356450004158, -4502.378940865868, 16510.250152379293, -3349.811238027959, 14843.100588691306, 7361.256463677462, -187500.02235174447, -187500.02235174447, -0.18, -0.794, -0.612, 192.0, 0.0, 0.0, 0.0, 0.0, 0.0, 0.0, 0.0, 0.0, 0.0, 1.6776159777658741E9, 0.0, 2023-02-28 12:26:17.765
96.0, 23934.605590654086, -4500.456690842711, 16648.316877879726, -3350.5041421060732, 14915.833165148875, 7416.353513759794, -187500.02235174447, -187500.02235174447, -0.18, -0.794, -0.612, 192.0, 0.0, 0.0, 0.0, 0.0, 0.0, 0.0, 0.0, 0.0, 0.0, 1.6776159777698724E9, 0.0, 2023-02-28 12:26:17.769
97.0, 23853.401703047955, -4491.2924756160355, 16551.533824388247, -3347.777229282526, 14866.502865136012, 7357.367260142239, -187500.02235174447, -187500.02235174447, -0.18, -0.794, -0.612, 192.0, 0.0, 0.0, 0.0, 0.0, 0.0, 0.0, 0.0, 0.0, 0.0, 1.6776159777738554E9, 0.0, 2023-02-28 12:26:17.773
98.0, 23804.406679201926, -4486.106870902404, 16405.934561006376, -3346.3690693818417, 14789.657567698667, 7299.118614091709, -187500.02235174447, -187500.02235174447, -0.18, -0.794, -0.612, 192.0, 0.0, 0.0, 0.0, 0.0, 0.0, 0.0, 0.0, 0.0, 0.0, 1.6776159777788663E9, 0.0, 2023-02-28 12:26:17.778
99.0, 23818.935313097874, -4486.88918195834, 16485.618529989544, -3350.0124037280566, 14827.163794894672, 7348.381858871206, -187500.02235174447, -187500.02235174447, -0.18, -0.794, -0.612, 192.0, 0.0, 0.0, 0.0, 0.0, 0.0, 0.0, 0.0, 0.0, 0.0, 1.6776159777818575E9, 0.0, 2023-02-28 12:26:17.781
100.0, 23844.930391899397, -4488.319693603479, 16647.087531934685, -3352.3369851514085, 14908.18886854516, 7420.354476017294, -187500.02235174447, -187500.02235174447, -0.18, -0.794, -0.612, 192.0, 0.0, 0.0, 0.0, 0.0, 0.0, 0.0, 0.0, 0.0, 0.0, 1.6776159777859125E9, 0.0, 2023-02-28 12:26:17.785
101.0, 23793.499027907736, -4483.692882501231, 16588.548313206233, -3349.319499649942, 14880.651519376222, 7378.377899930228, -187500.02235174447, -187500.02235174447, -0.18, -0.794, -0.612, 192.0, 0.0, 0.0, 0.0, 0.0, 0.0, 0.0, 0.0, 0.0, 0.0, 1.6776159777899284E9, 0.0, 2023-02-28 12:26:17.789
102.0, 23732.478765544747, -4477.143821375826, 16422.564258881124, -3345.89968274828, 14797.100698602284, 7310.383893297183, -187500.02235174447, -187500.02235174447, -0.18, -0.794, -0.612, 192.0, 0.0, 0.0, 0.0, 0.0, 0.0, 0.0, 0.0, 0.0, 0.0, 1.6776159777939477E9, 0.0, 2023-02-28 12:26:17.793
103.0, 23738.31257084758, -4479.758975477097, 16459.802265143666, -3349.163037438755, 14816.479661045036, 7342.324536123817, -187500.02235174447, -187500.02235174447, -0.18, -0.794, -0.612, 192.0, 0.0, 0.0, 0.0, 0.0, 0.0, 0.0, 0.0, 0.0, 0.0, 1.6776159777979124E9, 0.0, 2023-02-28 12:26:17.797
104.0, 23752.438873343333, -4479.937789432739, 16632.6259532721, -3350.9958804840903, 14905.350196999336, 7413.827766636345, -187500.02235174447, -187500.02235174447, -0.176, -0.782, -0.61, 192.0, 250.0, 128.0, 231.0, 144.0, 236.0, 240.0, 0.0, 0.0, 0.0, 1.6776159778018925E9, 0.0, 2023-02-28 12:26:17.801
105.0, 23760.21728041378, -4478.194353365226, 16614.968075152407, -3347.911339749258, 14901.416289975203, 7387.899743068188, -187500.02235174447, -187500.02235174447, -0.176, -0.782, -0.61, 192.0, 0.0, 0.0, 0.0, 0.0, 0.0, 0.0, 0.0, 0.0, 0.0, 1.6776159778069055E9, 0.0, 2023-02-28 12:26:17.806
106.0, 23791.800295329132, -4480.787155722041, 16444.357209725047, -3345.4749996036294, 14811.159945864672, 7320.218660857518, -187500.02235174447, -187500.02235174447, -0.176, -0.782, -0.61, 192.0, 0.0, 0.0, 0.0, 0.0, 0.0, 0.0, 0.0, 0.0, 0.0, 1.677615977809934E9, 0.0, 2023-02-28 12:26:17.809
107.0, 23784.22305395878, -4483.223495867669, 16439.39512245597, -3348.872464760836, 14805.661416728666, 7337.675373277113, -187500.02235174447, -187500.02235174447, -0.176, -0.782, -0.61, 192.0, 0.0, 0.0, 0.0, 0.0, 0.0, 0.0, 0.0, 0.0, 0.0, 1.677615977813908E9, 0.0, 2023-02-28 12:26:17.813
108.0, 23770.834359030054, -4482.843516211929, 16611.5706099952, -3352.068764217945, 14898.152935284726, 7413.112510813775, -187500.02235174447, -187500.02235174447, -0.176, -0.782, -0.61, 192.0, 0.0, 0.0, 0.0, 0.0, 0.0, 0.0, 0.0, 0.0, 0.0, 1.6776159778179076E9, 0.0, 2023-02-28 12:26:17.817
109.0, 23765.112312449495, -4482.105908644904, 16641.477244076403, -3350.571197339439, 14917.28602853847, 7408.776272389445, -187500.02235174447, -187500.02235174447, -0.176, -0.782, -0.61, 192.0, 0.0, 0.0, 0.0, 0.0, 0.0, 0.0, 0.0, 0.0, 0.0, 1.677615977821941E9, 0.0, 2023-02-28 12:26:17.821
110.0, 23762.877138003965, -4478.17200162077, 16473.727401939323, -3346.4808281041182, 14833.131710664238, 7334.12144590872, -187500.02235174447, -187500.02235174447, -0.176, -0.782, -0.61, 192.0, 0.0, 0.0, 0.0, 0.0, 0.0, 0.0, 0.0, 0.0, 0.0, 1.6776159778259325E9, 0.0, 2023-02-28 12:26:17.825
111.0, 23803.691423379354, -4476.853248697907, 16422.00546526974, -3346.5702350819392, 14809.081233630328, 7329.673448762113, -187500.02235174447, -187500.02235174447, -0.176, -0.782, -0.61, 192.0, 0.0, 0.0, 0.0, 0.0, 0.0, 0.0, 0.0, 0.0, 0.0, 1.6776159778299408E9, 0.0, 2023-02-28 12:26:17.829
112.0, 23855.122787371016, -4474.998053908116, 16580.725202646878, -3348.4030781272745, 14896.834182361865, 7404.37297873175, -187500.02235174447, -187500.02235174447, -0.176, -0.782, -0.61, 192.0, 0.0, 0.0, 0.0, 0.0, 0.0, 0.0, 0.0, 0.0, 0.0, 1.6776159778349605E9, 0.0, 2023-02-28 12:26:17.834
113.0, 23879.10620917156, -4472.539362018033, 16651.691991292475, -3346.0561449594675, 14940.554194516444, 7413.000752091498, -187500.02235174447, -187500.02235174447, -0.176, -0.782, -0.61, 192.0, 0.0, 0.0, 0.0, 0.0, 0.0, 0.0, 0.0, 0.0, 0.0, 1.6776159778379867E9, 0.0, 2023-02-28 12:26:17.837
114.0, 23884.604738307567, -4473.187562607237, 16498.6943004959, -3342.681031546716, 14860.199673199615, 7338.368277355227, -187500.02235174447, -187500.02235174447, -0.17400000000000002, -0.782, -0.612, 192.0, 250.0, 144.0, 231.0, 144.0, 236.0, 224.0, 0.0, 0.0, 0.0, 1.6776159778419785E9, 0.0, 2023-02-28 12:26:17.841
115.0, 23880.20144464987, -4473.83576319644, 16409.197915696852, -3343.284528647009, 14810.332931319826, 7316.35180906675, -187500.02235174447, -187500.02235174447, -0.17400000000000002, -0.782, -0.612, 192.0, 0.0, 0.0, 0.0, 0.0, 0.0, 0.0, 0.0, 0.0, 0.0, 1.677615977846004E9, 0.0, 2023-02-28 12:26:17.846
116.0, 23953.671628674463, -4476.853248697907, 16548.359876675593, -3346.681993804216, 14880.249187976025, 7392.347740214795, -187500.02235174447, -187500.02235174447, -0.17400000000000002, -0.782, -0.612, 192.0, 0.0, 0.0, 0.0, 0.0, 0.0, 0.0, 0.0, 0.0, 0.0, 1.6776159778500216E9, 0.0, 2023-02-28 12:26:17.850
117.0, 23978.92909990896, -4478.082594642949, 16659.87272976312, -3346.8831595043134, 14939.615421249322, 7425.115397586274, -187500.02235174447, -187500.02235174447, -0.17400000000000002, -0.782, -0.612, 192.0, 0.0, 0.0, 0.0, 0.0, 0.0, 0.0, 0.0, 0.0, 0.0, 1.6776159778539543E9, 0.0, 2023-02-28 12:26:17.853
118.0, 23987.266300590793, -4476.763841720086, 16532.55719334569, -3343.8880257473024, 14875.175341984672, 7354.863864763244, -187500.02235174447, -187500.02235174447, -0.17400000000000002, -0.782, -0.612, 192.0, 0.0, 0.0, 0.0, 0.0, 0.0, 0.0, 0.0, 0.0, 0.0, 1.677615977857964E9, 0.0, 2023-02-28 12:26:17.857
119.0, 23965.22748055786, -4477.07676614246, 16407.700348818344, -3342.8151420134477, 14808.701253974588, 7315.010704399432, -187500.02235174447, -187500.02235174447, -0.17400000000000002, -0.782, -0.612, 192.0, 0.0, 0.0, 0.0, 0.0, 0.0, 0.0, 0.0, 0.0, 0.0, 1.677615977863027E9, 0.0, 2023-02-28 12:26:17.863
120.0, 24011.115611924604, -4476.942655675728, 16514.31816987016, -3344.290357147498, 14866.27934769146, 7382.736490099012, -187500.02235174447, -187500.02235174447, -0.17400000000000002, -0.782, -0.612, 192.0, 0.0, 0.0, 0.0, 0.0, 0.0, 0.0, 0.0, 0.0, 0.0, 1.6776159778669708E9, 0.0, 2023-02-28 12:26:17.866
121.0, 24056.512004913333, -4472.718175973675, 16653.949517482462, -3343.5080460915624, 14943.906956184741, 7430.546871488914, -187500.02235174447, -187500.02235174447, -0.17400000000000002, -0.782, -0.612, 192.0, 0.0, 0.0, 0.0, 0.0, 0.0, 0.0, 0.0, 0.0, 0.0, 1.6776159778709972E9, 0.0, 2023-02-28 12:26:17.870
122.0, 24082.440028481487, -4473.5675422629765, 16561.681516370954, -3341.429333857219, 14896.141278283749, 7372.74526032749, -187500.02235174447, -187500.02235174447, -0.17400000000000002, -0.782, -0.612, 192.0, 0.0, 0.0, 0.0, 0.0, 0.0, 0.0, 0.0, 0.0, 0.0, 1.6776159778739989E9, 0.0, 2023-02-28 12:26:17.873
123.0, 24101.86369441315, -4472.539362018033, 16409.73435756378, -3340.2446914010875, 14820.391216324713, 7319.950439924055, -187500.02235174447, -187500.02235174447, -0.17400000000000002, -0.782, -0.612, 192.0, 0.0, 0.0, 0.0, 0.0, 0.0, 0.0, 0.0, 0.0, 0.0, 1.6776159778780682E9, 0.0, 2023-02-28 12:26:17.878
124.0, 24139.63814254262, -4473.880466685351, 16483.763335199754, -3343.686860047205, 14857.22689118706, 7369.168981214641, -187500.02235174447, -187500.02235174447, -0.17200000000000001, -0.788, -0.61, 192.0, 250.0, 160.0, 231.0, 96.0, 236.0, 240.0, 0.0, 0.0, 0.0, 1.6776159778820224E9, 0.0, 2023-02-28 12:26:17.882
125.0, 24203.698242151528, -4471.175905606259, 16647.7804360128, -3344.2009501696766, 14941.71648522812, 7434.99486863552, -187500.02235174447, -187500.02235174447, -0.17200000000000001, -0.788, -0.61, 192.0, 0.0, 0.0, 0.0, 0.0, 0.0, 0.0, 0.0, 0.0, 0.0, 1.677615977886157E9, 0.0, 2023-02-28 12:26:17.886
126.0, 24233.582524488276, -4467.912550915784, 16592.23635104136, -3339.350621622875, 14917.487194238567, 7396.125185027741, -187500.02235174447, -187500.02235174447, -0.17200000000000001, -0.788, -0.61, 192.0, 0.0, 0.0, 0.0, 0.0, 0.0, 0.0, 0.0, 0.0, 0.0, 1.6776159778900752E9, 0.0, 2023-02-28 12:26:17.890
127.0, 24233.001379132438, -4464.962120647683, 16423.145404236962, -3335.841397743392, 14830.628315285245, 7330.992201684976, -187500.02235174447, -187500.02235174447, -0.17200000000000001, -0.788, -0.61, 192.0, 0.0, 0.0, 0.0, 0.0, 0.0, 0.0, 0.0, 0.0, 0.0, 1.6776159778940156E9, 0.0, 2023-02-28 12:26:17.894
128.0, 24281.214091922535, -4467.040832882027, 16452.850872618066, -3338.098923933378, 14844.776969525454, 7366.8220480468335, -187500.02235174447, -187500.02235174447, -0.17200000000000001, -0.788, -0.61, 192.0, 0.0, 0.0, 0.0, 0.0, 0.0, 0.0, 0.0, 0.0, 0.0, 1.6776159778970284E9, 0.0, 2023-02-28 12:26:17.897
129.0, 24345.989447354015, -4470.1030218724045, 16627.14977588055, -3341.295223390487, 14936.28501132548, 7437.9676506480755, -187500.02235174447, -187500.02235174447, -0.17200000000000001, -0.788, -0.61, 192.0, 0.0, 0.0, 0.0, 0.0, 0.0, 0.0, 0.0, 0.0, 0.0, 1.677615977902017E9, 0.0, 2023-02-28 12:26:17.902
130.0, 24391.028212431458, -4470.706518972697, 16617.627932742587, -3339.8647117453474, 14936.530880514489, 7412.106682313286, -187500.02235174447, -187500.02235174447, -0.17200000000000001, -0.788, -0.61, 192.0, 0.0, 0.0, 0.0, 0.0, 0.0, 0.0, 0.0, 0.0, 0.0, 1.677615977906027E9, 0.0, 2023-02-28 12:26:17.906
131.0, 24377.01366865798, -4475.199219608214, 16445.16187252544, -3338.0095169555566, 14844.620507314266, 7338.614146544236, -187500.02235174447, -187500.02235174447, -0.17200000000000001, -0.788, -0.61, 192.0, 0.0, 0.0, 0.0, 0.0, 0.0, 0.0, 0.0, 0.0, 0.0, 1.6776159779100628E9, 0.0, 2023-02-28 12:26:17.910
132.0, 24332.421938469644, -4474.305149830002, 16432.041398530175, -3339.1718076672328, 14836.037437443429, 7350.997012972476, -187500.02235174447, -187500.02235174447, -0.17200000000000001, -0.788, -0.61, 192.0, 0.0, 0.0, 0.0, 0.0, 0.0, 0.0, 0.0, 0.0, 0.0, 1.6776159779140384E9, 0.0, 2023-02-28 12:26:17.914
133.0, 24408.037889961946, -4469.03013813855, 16602.361691279613, -3339.5964908118835, 14926.405540276235, 7430.815092422377, -187500.02235174447, -187500.02235174447, -0.17200000000000001, -0.788, -0.61, 192.0, 0.0, 0.0, 0.0, 0.0, 0.0, 0.0, 0.0, 0.0, 0.0, 1.6776159779180288E9, 0.0, 2023-02-28 12:26:17.918
134.0, 24452.875489339294, -4469.611283494387, 16637.275116118803, -3337.89775823328, 14946.119778885815, 7428.758731932489, -187500.02235174447, -187500.02235174447, -0.176, -0.788, -0.608, 192.0, 250.0, 128.0, 231.0, 96.0, 237.0, 0.0, 0.0, 0.0, 0.0, 1.6776159779210122E9, 0.0, 2023-02-28 12:26:17.921
135.0, 24426.388672159752, -4468.605454993899, 16471.872207149532, -3335.3943628542856, 14861.205501700104, 7352.114600195241, -187500.02235174447, -187500.02235174447, -0.176, -0.788, -0.608, 192.0, 0.0, 0.0, 0.0, 0.0, 0.0, 0.0, 0.0, 0.0, 0.0, 1.677615977925043E9, 0.0, 2023-02-28 12:26:17.925
136.0, 24434.614114119307, -4469.812449194485, 16415.366997166515, -3336.4001913547745, 14831.65649553019, 7347.8007135153675, -187500.02235174447, -187500.02235174447, -0.176, -0.788, -0.608, 192.0, 0.0, 0.0, 0.0, 0.0, 0.0, 0.0, 0.0, 0.0, 0.0, 1.6776159779290624E9, 0.0, 2023-02-28 12:26:17.929
137.0, 24494.740306704083, -4474.193391107726, 16574.37730722157, -3339.484732089607, 14915.117909326305, 7424.511900485981, -187500.02235174447, -187500.02235174447, -0.176, -0.788, -0.608, 192.0, 0.0, 0.0, 0.0, 0.0, 0.0, 0.0, 0.0, 0.0, 0.0, 1.6776159779341252E9, 0.0, 2023-02-28 12:26:17.934
