%OpenBCI Raw EEG Data
%Number of channels = 8
%Sample Rate = 250 Hz
%Board = OpenBCI_GUI$BoardCytonSerial
Sample Index, EXG Channel 0, EXG Channel 1, EXG Channel 2, EXG Channel 3, EXG Channel 4, EXG Channel 5, EXG Channel 6, EXG Channel 7, Accel Channel 0, Accel Channel 1, Accel Channel 2, Other, Other, Other, Other, Other, Other, Other, Analog Channel 0, Analog Channel 1, Analog Channel 2, Timestamp, Other, Timestamp (Formatted)
134.0, 27874.592289279975, -4186.392329501192, 15312.151946085925, -2945.2223116424457, 15529.746178358339, 7789.761756630154, -187500.02235174447, -187500.02235174447, 0.0, 0.0, 0.0, 192.0, 0.0, 0.0, 0.0, 0.0, 0.0, 0.0, 0.0, 0.0, 0.0, 1.6776147391530259E9, 0.0, 2023-02-28 12:05:39.153
135.0, 27750.428348830745, -4182.033739332407, 14628.702655876, -2934.404067326077, 15179.315528788034, 7453.524464788969, -187500.02235174447, -187500.02235174447, 0.0, 0.0, 0.0, 192.0, 0.0, 0.0, 0.0, 0.0, 0.0, 0.0, 0.0, 0.0, 0.0, 1.6776147391530576E9, 0.0, 2023-02-28 12:05:39.153
136.0, 27682.948432320172, -4182.458422477058, 14091.992568015166, -2934.918157448549, 14896.99064457305, 7295.5646867233145, -187500.02235174447, -187500.02235174447, 0.0, 0.0, 0.0, 192.0, 0.0, 0.0, 0.0, 0.0, 0.0, 0.0, 0.0, 0.0, 0.0, 1.6776147391530728E9, 0.0, 2023-02-28 12:05:39.153
137.0, 27795.578872630464, -4185.252390533971, 14693.43330781857, -2945.3340703647223, 15207.05404365707, 7606.499803841091, -187500.02235174447, -187500.02235174447, 0.0, 0.0, 0.0, 192.0, 0.0, 0.0, 0.0, 0.0, 0.0, 0.0, 0.0, 0.0, 0.0, 1.677614739153087E9, 0.0, 2023-02-28 12:05:39.153
0.0, 0.0, 0.0, 0.0, 0.0, 0.0, 0.0, 0.0, 0.0, -0.182, -0.758, -0.638, 192.0, 250.0, 80.0, 232.0, 80.0, 236.0, 16.0, 0.0, 0.0, 0.0, 1.677614739265489E9, 0.0, 2023-02-28 12:05:39.265
1.0, 27216.735746471375, -4127.249613672449, 14741.82483456431, -2939.7461342508955, 15039.371256753357, 7433.162025590185, -187500.02235174447, -187500.02235174447, -0.182, -0.758, -0.638, 192.0, 0.0, 0.0, 0.0, 0.0, 0.0, 0.0, 0.0, 0.0, 0.0, 1.677614739273508E9, 0.0, 2023-02-28 12:05:39.273
2.0, 27316.938616864518, -4131.518796863413, 15431.264392288256, -2943.501227319387, 15407.325673976622, 7666.178961536761, -187500.02235174447, -187500.02235174447, -0.182, -0.758, -0.638, 192.0, 0.0, 0.0, 0.0, 0.0, 0.0, 0.0, 0.0, 0.0, 0.0, 1.6776147392775233E9, 0.0, 2023-02-28 12:05:39.277
3.0, 27208.577359745188, -4133.888081775675, 14981.480238614111, -2934.3593638371667, 15177.750906676163, 7398.22624900654, -187500.02235174447, -187500.02235174447, -0.182, -0.758, -0.638, 192.0, 0.0, 0.0, 0.0, 0.0, 0.0, 0.0, 0.0, 0.0, 0.0, 1.6776147392824812E9, 0.0, 2023-02-28 12:05:39.282
4.0, 27087.02857339723, -4137.799637055354, 14253.886253104956, -2931.498340546887, 14791.624521210733, 7137.26963249083, -187500.02235174447, -187500.02235174447, -0.182, -0.758, -0.638, 192.0, 0.0, 0.0, 0.0, 0.0, 0.0, 0.0, 0.0, 0.0, 0.0, 1.6776147392864687E9, 0.0, 2023-02-28 12:05:39.286
5.0, 27157.4589201759, -4141.48767489048, 14593.900989759088, -2941.087238918214, 14962.972994205118, 7359.960062499054, -187500.02235174447, -187500.02235174447, -0.182, -0.758, -0.638, 192.0, 0.0, 0.0, 0.0, 0.0, 0.0, 0.0, 0.0, 0.0, 0.0, 1.677614739289522E9, 0.0, 2023-02-28 12:05:39.289
6.0, 27276.526662889322, -4140.8618260457315, 15383.56576962063, -2945.758753509373, 15380.928263774904, 7657.573539921468, -187500.02235174447, -187500.02235174447, -0.182, -0.758, -0.638, 192.0, 0.0, 0.0, 0.0, 0.0, 0.0, 0.0, 0.0, 0.0, 0.0, 1.6776147392934992E9, 0.0, 2023-02-28 12:05:39.293
7.0, 27225.92231344251, -4137.710230077533, 15128.867641552406, -2937.309794105267, 15256.361991925478, 7462.375755593272, -187500.02235174447, -187500.02235174447, -0.182, -0.758, -0.638, 192.0, 0.0, 0.0, 0.0, 0.0, 0.0, 0.0, 0.0, 0.0, 0.0, 1.6776147392974892E9, 0.0, 2023-02-28 12:05:39.297
8.0, 27104.03825092772, -4135.966794010019, 14320.69561728187, -2931.4536370579767, 14831.298867618903, 7149.026650074322, -187500.02235174447, -187500.02235174447, -0.182, -0.754, -0.632, 192.0, 250.0, 80.0, 232.0, 112.0, 236.0, 64.0, 0.0, 0.0, 0.0, 1.6776147393015988E9, 0.0, 2023-02-28 12:05:39.301
9.0, 27141.544478123724, -4136.592642854767, 14462.38332538406, -2938.606195283675, 14898.287045751458, 7298.649227458147, -187500.02235174447, -187500.02235174447, -0.182, -0.754, -0.632, 192.0, 0.0, 0.0, 0.0, 0.0, 0.0, 0.0, 0.0, 0.0, 0.0, 1.6776147393055289E9, 0.0, 2023-02-28 12:05:39.305
10.0, 27286.58494789421, -4135.206834698539, 15294.717585410785, -2944.4847040754207, 15337.521176042697, 7638.999240279108, -187500.02235174447, -187500.02235174447, -0.182, -0.754, -0.632, 192.0, 0.0, 0.0, 0.0, 0.0, 0.0, 0.0, 0.0, 0.0, 0.0, 1.6776147393106573E9, 0.0, 2023-02-28 12:05:39.310
11.0, 27280.549976891278, -4133.86573003122, 15255.557329125088, -2937.242738871901, 15326.613524748509, 7529.989782570575, -187500.02235174447, -187500.02235174447, -0.182, -0.754, -0.632, 192.0, 0.0, 0.0, 0.0, 0.0, 0.0, 0.0, 0.0, 0.0, 0.0, 1.6776147393144903E9, 0.0, 2023-02-28 12:05:39.314
12.0, 27140.493946134324, -4132.39051489717, 14422.485461531338, -2929.218462612446, 14886.910007823708, 7180.006167889377, -187500.02235174447, -187500.02235174447, -0.182, -0.754, -0.632, 192.0, 0.0, 0.0, 0.0, 0.0, 0.0, 0.0, 0.0, 0.0, 0.0, 1.6776147393175378E9, 0.0, 2023-02-28 12:05:39.317
13.0, 27117.091669689617, -4131.563500352323, 14351.451617652372, -2934.046439414792, 14844.218175914071, 7240.691154085536, -187500.02235174447, -187500.02235174447, -0.182, -0.754, -0.632, 192.0, 0.0, 0.0, 0.0, 0.0, 0.0, 0.0, 0.0, 0.0, 0.0, 1.677614739321531E9, 0.0, 2023-02-28 12:05:39.321
14.0, 27246.620028808124, -4132.837549786276, 15170.777162406108, -2942.4283435855323, 15275.02569854566, 7599.324893870938, -187500.02235174447, -187500.02235174447, -0.182, -0.754, -0.632, 192.0, 0.0, 0.0, 0.0, 0.0, 0.0, 0.0, 0.0, 0.0, 0.0, 1.6776147393255928E9, 0.0, 2023-02-28 12:05:39.325
15.0, 27259.315819658736, -4133.016363741918, 15351.602775049541, -2938.852064472683, 15376.413211394933, 7584.192762874694, -187500.02235174447, -187500.02235174447, -0.182, -0.754, -0.632, 192.0, 0.0, 0.0, 0.0, 0.0, 0.0, 0.0, 0.0, 0.0, 0.0, 1.677614739329539E9, 0.0, 2023-02-28 12:05:39.329
16.0, 27124.065413959674, -4131.630555585689, 14550.40449504906, -2930.2913463463005, 14955.015773179028, 7226.184871934041, -187500.02235174447, -187500.02235174447, -0.182, -0.754, -0.632, 192.0, 0.0, 0.0, 0.0, 0.0, 0.0, 0.0, 0.0, 0.0, 0.0, 1.677614739333638E9, 0.0, 2023-02-28 12:05:39.333
17.0, 27106.720460262357, -4129.618898584712, 14270.560654468616, -2932.705334747474, 14800.676977715133, 7197.552287286793, -187500.02235174447, -187500.02235174447, -0.182, -0.754, -0.632, 192.0, 0.0, 0.0, 0.0, 0.0, 0.0, 0.0, 0.0, 0.0, 0.0, 1.6776147393385198E9, 0.0, 2023-02-28 12:05:39.338
18.0, 27250.978618976907, -4128.031924728385, 15025.110843790872, -2940.796666240295, 15195.587598751497, 7550.6651461917345, -187500.02235174447, -187500.02235174447, -0.184, -0.756, -0.64, 192.0, 250.0, 64.0, 232.0, 96.0, 236.0, 0.0, 0.0, 0.0, 0.0, 1.67761473934256E9, 0.0, 2023-02-28 12:05:39.342
19.0, 27298.766648622353, -4127.450779372547, 15416.847517114582, -2938.226215627935, 15407.035101298703, 7631.645516353312, -187500.02235174447, -187500.02235174447, -0.184, -0.756, -0.64, 192.0, 0.0, 0.0, 0.0, 0.0, 0.0, 0.0, 0.0, 0.0, 0.0, 1.6776147393456917E9, 0.0, 2023-02-28 12:05:39.345
20.0, 27163.85151909012, -4128.031924728385, 14705.570305057801, -2928.6596690010633, 15036.64434392981, 7286.691044174558, -187500.02235174447, -187500.02235174447, -0.184, -0.756, -0.64, 192.0, 0.0, 0.0, 0.0, 0.0, 0.0, 0.0, 0.0, 0.0, 0.0, 1.6776147393496456E9, 0.0, 2023-02-28 12:05:39.349
21.0, 27101.42309682645, -4130.155340451639, 14236.474244174273, -2929.129055634625, 14783.957872862564, 7162.37064151414, -187500.02235174447, -187500.02235174447, -0.184, -0.756, -0.64, 192.0, 0.0, 0.0, 0.0, 0.0, 0.0, 0.0, 0.0, 0.0, 0.0, 1.6776147393536415E9, 0.0, 2023-02-28 12:05:39.353
22.0, 27218.47918253889, -4132.032886985885, 14869.922682037673, -2938.9414714505047, 15113.109661711414, 7483.364043636804, -187500.02235174447, -187500.02235174447, -0.184, -0.756, -0.64, 192.0, 0.0, 0.0, 0.0, 0.0, 0.0, 0.0, 0.0, 0.0, 0.0, 1.6776147393575797E9, 0.0, 2023-02-28 12:05:39.357
23.0, 27292.53051191932, -4131.205872441038, 15440.227441814834, -2939.6567272730745, 15420.647313671985, 7654.667813142278, -187500.02235174447, -187500.02235174447, -0.184, -0.756, -0.64, 192.0, 0.0, 0.0, 0.0, 0.0, 0.0, 0.0, 0.0, 0.0, 0.0, 1.6776147393615832E9, 0.0, 2023-02-28 12:05:39.361
24.0, 27181.643507676545, -4127.942517750564, 14856.60104234231, -2928.3690963231443, 15121.424510648789, 7348.001879215465, -187500.02235174447, -187500.02235174447, -0.184, -0.756, -0.64, 192.0, 0.0, 0.0, 0.0, 0.0, 0.0, 0.0, 0.0, 0.0, 0.0, 1.67761473936563E9, 0.0, 2023-02-28 12:05:39.365
25.0, 27098.539721791713, -4126.377895638692, 14226.86299405849, -2926.156273622069, 14783.846114140288, 7145.673888406025, -187500.02235174447, -187500.02235174447, -0.184, -0.756, -0.64, 192.0, 0.0, 0.0, 0.0, 0.0, 0.0, 0.0, 0.0, 0.0, 0.0, 1.6776147393705955E9, 0.0, 2023-02-28 12:05:39.370
26.0, 27214.09824062565, -4129.753009051444, 14714.175726673095, -2936.1251516491357, 15032.30810550548, 7419.952144617098, -187500.02235174447, -187500.02235174447, -0.184, -0.756, -0.64, 192.0, 0.0, 0.0, 0.0, 0.0, 0.0, 0.0, 0.0, 0.0, 0.0, 1.6776147393735614E9, 0.0, 2023-02-28 12:05:39.373
27.0, 27317.65387268709, -4134.625689342701, 15423.351874751077, -2940.0814104177252, 15413.964142079849, 7663.295586502027, -187500.02235174447, -187500.02235174447, -0.184, -0.756, -0.64, 192.0, 0.0, 0.0, 0.0, 0.0, 0.0, 0.0, 0.0, 0.0, 0.0, 1.677614739377643E9, 0.0, 2023-02-28 12:05:39.377
28.0, 27203.794086431753, -4134.9386137650745, 15009.039939527505, -2931.8783202026275, 15202.181363365813, 7411.346723001805, -187500.02235174447, -187500.02235174447, -0.182, -0.758, -0.632, 192.0, 250.0, 80.0, 232.0, 80.0, 236.0, 64.0, 0.0, 0.0, 0.0, 1.6776147393816516E9, 0.0, 2023-02-28 12:05:39.381
29.0, 27075.69623895839, -4134.20100619805, 14263.765724154202, -2928.1679306230462, 14805.907285917674, 7141.158836026054, -187500.02235174447, -187500.02235174447, -0.182, -0.758, -0.632, 192.0, 0.0, 0.0, 0.0, 0.0, 0.0, 0.0, 0.0, 0.0, 0.0, 1.6776147393856874E9, 0.0, 2023-02-28 12:05:39.385
30.0, 27139.778690311756, -4135.00566899844, 14562.966175432943, -2937.1980353829904, 14955.39575283477, 7348.538321082392, -187500.02235174447, -187500.02235174447, -0.182, -0.758, -0.632, 192.0, 0.0, 0.0, 0.0, 0.0, 0.0, 0.0, 0.0, 0.0, 0.0, 1.677614739389693E9, 0.0, 2023-02-28 12:05:39.389
31.0, 27266.15545346206, -4136.413828899125, 15361.3257838876, -2943.210654641468, 15376.972005006315, 7656.27713874306, -187500.02235174447, -187500.02235174447, -0.182, -0.758, -0.632, 192.0, 0.0, 0.0, 0.0, 0.0, 0.0, 0.0, 0.0, 0.0, 0.0, 1.6776147393936784E9, 0.0, 2023-02-28 12:05:39.393
32.0, 27214.63468249258, -4133.195177697561, 15150.727647629697, -2934.96286093746, 15274.69042237883, 7479.653654057223, -187500.02235174447, -187500.02235174447, -0.182, -0.758, -0.632, 192.0, 0.0, 0.0, 0.0, 0.0, 0.0, 0.0, 0.0, 0.0, 0.0, 1.677614739398666E9, 0.0, 2023-02-28 12:05:39.398
33.0, 27086.760352463767, -4130.669430574111, 14338.912289012944, -2928.5926137676975, 14846.430998615146, 7156.603891444671, -187500.02235174447, -187500.02235174447, -0.182, -0.758, -0.632, 192.0, 0.0, 0.0, 0.0, 0.0, 0.0, 0.0, 0.0, 0.0, 0.0, 1.6776147394017005E9, 0.0, 2023-02-28 12:05:39.401
34.0, 27132.536725108235, -4129.507139862435, 14437.215261127385, -2935.365192337655, 14892.140316026249, 7286.244009285451, -187500.02235174447, -187500.02235174447, -0.182, -0.758, -0.632, 192.0, 0.0, 0.0, 0.0, 0.0, 0.0, 0.0, 0.0, 0.0, 0.0, 1.6776147394056509E9, 0.0, 2023-02-28 12:05:39.405
35.0, 27281.712267602954, -4129.775360795898, 15268.431933931344, -2942.6295092856303, 15333.900193440939, 7629.902080285798, -187500.02235174447, -187500.02235174447, -0.182, -0.758, -0.632, 192.0, 0.0, 0.0, 0.0, 0.0, 0.0, 0.0, 0.0, 0.0, 0.0, 1.6776147394097426E9, 0.0, 2023-02-28 12:05:39.409
36.0, 27258.533508602803, -4129.216567184516, 15275.249215990212, -2936.594538282697, 15347.959440703326, 7540.137474553285, -187500.02235174447, -187500.02235174447, -0.182, -0.758, -0.632, 192.0, 0.0, 0.0, 0.0, 0.0, 0.0, 0.0, 0.0, 0.0, 0.0, 1.6776147394136217E9, 0.0, 2023-02-28 12:05:39.413
37.0, 27114.476515588347, -4128.568366595312, 14452.392095612538, -2928.793779467795, 14914.067377336905, 7190.1985633609975, -187500.02235174447, -187500.02235174447, -0.182, -0.758, -0.632, 192.0, 0.0, 0.0, 0.0, 0.0, 0.0, 0.0, 0.0, 0.0, 0.0, 1.6776147394176772E9, 0.0, 2023-02-28 12:05:39.417
38.0, 27117.337538878626, -4130.96000325203, 14336.945335500877, -2933.755866736873, 14844.218175914071, 7231.035200480843, -187500.02235174447, -187500.02235174447, -0.182, -0.756, -0.636, 192.0, 250.0, 80.0, 232.0, 96.0, 236.0, 32.0, 0.0, 0.0, 0.0, 1.677614739421732E9, 0.0, 2023-02-28 12:05:39.421
39.0, 27261.953325504463, -4132.323459663804, 15139.372961446401, -2941.4225150850434, 15263.983936784738, 7588.238428621105, -187500.02235174447, -187500.02235174447, -0.182, -0.756, -0.636, 192.0, 0.0, 0.0, 0.0, 0.0, 0.0, 0.0, 0.0, 0.0, 0.0, 1.677614739426697E9, 0.0, 2023-02-28 12:05:39.426
40.0, 27275.722000088932, -4133.15047420865, 15363.09157169957, -2936.9074627050713, 15389.980720279304, 7591.322969355938, -187500.02235174447, -187500.02235174447, -0.182, -0.756, -0.636, 192.0, 0.0, 0.0, 0.0, 0.0, 0.0, 0.0, 0.0, 0.0, 0.0, 1.6776147394296317E9, 0.0, 2023-02-28 12:05:39.429
41.0, 27134.146050709016, -4135.787980054376, 14581.898102986588, -2930.2913463463005, 14980.34029964689, 7232.666877826081, -187500.02235174447, -187500.02235174447, -0.182, -0.756, -0.636, 192.0, 0.0, 0.0, 0.0, 0.0, 0.0, 0.0, 0.0, 0.0, 0.0, 1.6776147394337614E9, 0.0, 2023-02-28 12:05:39.433
42.0, 27105.46876257286, -4137.15143646615, 14264.950366610334, -2933.8676254591496, 14802.97920739403, 7184.431813291528, -187500.02235174447, -187500.02235174447, -0.182, -0.756, -0.636, 192.0, 0.0, 0.0, 0.0, 0.0, 0.0, 0.0, 0.0, 0.0, 0.0, 1.6776147394376848E9, 0.0, 2023-02-28 12:05:39.437
43.0, 27248.20700266445, -4137.687878333078, 14994.176029464727, -2942.808323241273, 15183.24943581217, 7529.721561637111, -187500.02235174447, -187500.02235174447, -0.182, -0.756, -0.636, 192.0, 0.0, 0.0, 0.0, 0.0, 0.0, 0.0, 0.0, 0.0, 0.0, 1.6776147394416616E9, 0.0, 2023-02-28 12:05:39.441
44.0, 27318.436183743022, -4136.123256221206, 15419.887354360504, -2940.3719830956443, 15415.61817116954, 7627.197519206706, -187500.02235174447, -187500.02235174447, -0.182, -0.756, -0.636, 192.0, 0.0, 0.0, 0.0, 0.0, 0.0, 0.0, 0.0, 0.0, 0.0, 1.6776147394456472E9, 0.0, 2023-02-28 12:05:39.445
45.0, 27176.43555121846, -4134.826855042798, 14729.710189069534, -2930.447808557488, 15056.447989517212, 7286.623988941192, -187500.02235174447, -187500.02235174447, -0.182, -0.756, -0.636, 192.0, 0.0, 0.0, 0.0, 0.0, 0.0, 0.0, 0.0, 0.0, 0.0, 1.677614739449752E9, 0.0, 2023-02-28 12:05:39.449
46.0, 27086.268614085748, -4136.503235876946, 14228.628781870459, -2930.8724917021386, 14786.26010254146, 7147.372620984629, -187500.02235174447, -187500.02235174447, -0.182, -0.756, -0.636, 192.0, 0.0, 0.0, 0.0, 0.0, 0.0, 0.0, 0.0, 0.0, 0.0, 1.6776147394537392E9, 0.0, 2023-02-28 12:05:39.453
47.0, 27203.257644564826, -4139.8112940563315, 14835.769216509965, -2939.902596462083, 15100.480926094167, 7461.884017215254, -187500.02235174447, -187500.02235174447, -0.182, -0.756, -0.636, 192.0, 0.0, 0.0, 0.0, 0.0, 0.0, 0.0, 0.0, 0.0, 0.0, 1.677614739456706E9, 0.0, 2023-02-28 12:05:39.456
48.0, 27281.108770502662, -4140.459494645535, 15437.09819759109, -2941.1319424071244, 15421.809604383661, 7652.253824741105, -187500.02235174447, -187500.02235174447, -0.182, -0.752, -0.632, 192.0, 250.0, 80.0, 232.0, 128.0, 236.0, 64.0, 0.0, 0.0, 0.0, 1.677614739461689E9, 0.0, 2023-02-28 12:05:39.461
49.0, 27160.52110916628, -4138.134913222184, 14888.675795635678, -2932.370058580644, 15135.573164889, 7355.355603141261, -187500.02235174447, -187500.02235174447, -0.182, -0.752, -0.632, 192.0, 0.0, 0.0, 0.0, 0.0, 0.0, 0.0, 0.0, 0.0, 0.0, 1.6776147394656613E9, 0.0, 2023-02-28 12:05:39.465
50.0, 27064.699180686377, -4138.24667194446, 14236.496595918727, -2931.118360891147, 14784.539018218402, 7139.884786592101, -187500.02235174447, -187500.02235174447, -0.182, -0.752, -0.632, 192.0, 0.0, 0.0, 0.0, 0.0, 0.0, 0.0, 0.0, 0.0, 0.0, 1.6776147394697206E9, 0.0, 2023-02-28 12:05:39.469
51.0, 27160.722274866377, -4137.509064377435, 14683.553836769324, -2939.992003439904, 15012.593866895899, 7403.210688020074, -187500.02235174447, -187500.02235174447, -0.182, -0.752, -0.632, 192.0, 0.0, 0.0, 0.0, 0.0, 0.0, 0.0, 0.0, 0.0, 0.0, 1.677614739473715E9, 0.0, 2023-02-28 12:05:39.473
52.0, 27273.889157043595, -4135.8773870321975, 15414.992322324792, -2942.9871371969152, 15405.492830931287, 7662.759144635099, -187500.02235174447, -187500.02235174447, -0.182, -0.752, -0.632, 192.0, 0.0, 0.0, 0.0, 0.0, 0.0, 0.0, 0.0, 0.0, 0.0, 1.6776147394777274E9, 0.0, 2023-02-28 12:05:39.477
53.0, 27199.167275329506, -4133.664564331122, 15042.791073655018, -2934.381715581622, 15218.162860651359, 7421.740284173523, -187500.02235174447, -187500.02235174447, -0.182, -0.752, -0.632, 192.0, 0.0, 0.0, 0.0, 0.0, 0.0, 0.0, 0.0, 0.0, 0.0, 1.6776147394816887E9, 0.0, 2023-02-28 12:05:39.481
54.0, 27088.146160619995, -4132.77049455291, 14282.250616818741, -2931.2524713578787, 14812.12107087625, 7139.214234258442, -187500.02235174447, -187500.02235174447, -0.182, -0.752, -0.632, 192.0, 0.0, 0.0, 0.0, 0.0, 0.0, 0.0, 0.0, 0.0, 0.0, 1.677614739484702E9, 0.0, 2023-02-28 12:05:39.484
55.0, 27154.329675952158, -4133.8210265423095, 14544.369524046127, -2939.1426371506022, 14939.928345671697, 7338.033001188398, -187500.02235174447, -187500.02235174447, -0.182, -0.752, -0.632, 192.0, 0.0, 0.0, 0.0, 0.0, 0.0, 0.0, 0.0, 0.0, 0.0, 1.6776147394887185E9, 0.0, 2023-02-28 12:05:39.488
56.0, 27278.426561168024, -4135.787980054376, 15351.938051216372, -2945.3340703647223, 15365.170283933912, 7656.835932354443, -187500.02235174447, -187500.02235174447, -0.182, -0.752, -0.632, 192.0, 0.0, 0.0, 0.0, 0.0, 0.0, 0.0, 0.0, 0.0, 0.0, 1.6776147394937851E9, 0.0, 2023-02-28 12:05:39.493
57.0, 27224.760022730832, -4135.363296909725, 15179.96372937724, -2938.181512139024, 15284.346375983523, 7493.6681978307015, -187500.02235174447, -187500.02235174447, -0.182, -0.752, -0.632, 192.0, 0.0, 0.0, 0.0, 0.0, 0.0, 0.0, 0.0, 0.0, 0.0, 1.6776147394977102E9, 0.0, 2023-02-28 12:05:39.497
58.0, 27098.31620434716, -4133.239881186471, 14357.240719466296, -2931.140712635602, 14851.594251584322, 7164.516408981849, -187500.02235174447, -187500.02235174447, -0.182, -0.758, -0.638, 192.0, 250.0, 80.0, 232.0, 80.0, 236.0, 16.0, 0.0, 0.0, 0.0, 1.6776147395017984E9, 0.0, 2023-02-28 12:05:39.501
59.0, 27139.018731000273, -4133.038715486374, 14417.009284139787, -2937.1309801496245, 14877.008185030007, 7281.863067372212, -187500.02235174447, -187500.02235174447, -0.182, -0.758, -0.638, 192.0, 0.0, 0.0, 0.0, 0.0, 0.0, 0.0, 0.0, 0.0, 0.0, 1.6776147395057368E9, 0.0, 2023-02-28 12:05:39.505
60.0, 27269.642325597088, -4135.452703887547, 15246.482520876232, -2944.2388348864124, 15314.476527509276, 7631.444350653214, -187500.02235174447, -187500.02235174447, -0.182, -0.758, -0.638, 192.0, 0.0, 0.0, 0.0, 0.0, 0.0, 0.0, 0.0, 0.0, 0.0, 1.677614739509725E9, 0.0, 2023-02-28 12:05:39.509
61.0, 27241.277961883305, -4137.7549335664435, 15293.175315043369, -2939.3438028507, 15345.679562768884, 7555.738992183089, -187500.02235174447, -187500.02235174447, -0.182, -0.758, -0.638, 192.0, 0.0, 0.0, 0.0, 0.0, 0.0, 0.0, 0.0, 0.0, 0.0, 1.6776147395127528E9, 0.0, 2023-02-28 12:05:39.512
62.0, 27099.679660758935, -4138.716058578022, 14472.687479577957, -2931.7442097358958, 14913.597990703343, 7199.787461732324, -187500.02235174447, -187500.02235174447, -0.182, -0.758, -0.638, 192.0, 0.0, 0.0, 0.0, 0.0, 0.0, 0.0, 0.0, 0.0, 0.0, 1.677614739516778E9, 0.0, 2023-02-28 12:05:39.516
63.0, 27091.185997865916, -4143.365221424726, 14319.287457381184, -2936.885110960616, 14823.65457101519, 7227.302459156806, -187500.02235174447, -187500.02235174447, -0.182, -0.758, -0.638, 192.0, 0.0, 0.0, 0.0, 0.0, 0.0, 0.0, 0.0, 0.0, 0.0, 1.6776147395217693E9, 0.0, 2023-02-28 12:05:39.521
64.0, 27223.933008185984, -4148.617881371722, 15114.786042545564, -2946.094029676203, 15239.039389972615, 7583.343396585393, -187500.02235174447, -187500.02235174447, -0.182, -0.758, -0.638, 192.0, 0.0, 0.0, 0.0, 0.0, 0.0, 0.0, 0.0, 0.0, 0.0, 1.677614739525739E9, 0.0, 2023-02-28 12:05:39.525
65.0, 27236.137060658584, -4151.456552917547, 15378.871903285017, -2942.2718813743454, 15388.863133056539, 7603.571725317446, -187500.02235174447, -187500.02235174447, -0.182, -0.758, -0.638, 192.0, 0.0, 0.0, 0.0, 0.0, 0.0, 0.0, 0.0, 0.0, 0.0, 1.6776147395297508E9, 0.0, 2023-02-28 12:05:39.529
66.0, 27071.449407511882, -4156.1280675087055, 14608.899010288598, -2933.8005702257838, 14983.849523526374, 7246.569662877281, -187500.02235174447, -187500.02235174447, -0.182, -0.758, -0.638, 192.0, 0.0, 0.0, 0.0, 0.0, 0.0, 0.0, 0.0, 0.0, 0.0, 1.67761473953378E9, 0.0, 2023-02-28 12:05:39.533
67.0, 27026.79062209018, -4156.1280675087055, 14254.556805438615, -2936.1027999046805, 14788.40587000917, 7181.347272556695, -187500.02235174447, -187500.02235174447, -0.182, -0.758, -0.638, 192.0, 0.0, 0.0, 0.0, 0.0, 0.0, 0.0, 0.0, 0.0, 0.0, 1.677614739538746E9, 0.0, 2023-02-28 12:05:39.538
68.0, 27156.006056786307, -4156.195122742071, 14968.762096019042, -2945.021145942348, 15159.690697156275, 7522.837224344877, -187500.02235174447, -187500.02235174447, -0.188, -0.754, -0.636, 192.0, 250.0, 32.0, 232.0, 112.0, 236.0, 32.0, 0.0, 0.0, 0.0, 1.6776147395417807E9, 0.0, 2023-02-28 12:05:39.541
69.0, 27199.23433056287, -4160.419602444124, 15430.1915085544, -2944.417648842055, 15408.912647832949, 7634.126559987851, -187500.02235174447, -187500.02235174447, -0.188, -0.754, -0.636, 192.0, 0.0, 0.0, 0.0, 0.0, 0.0, 0.0, 0.0, 0.0, 0.0, 1.6776147395448103E9, 0.0, 2023-02-28 12:05:39.544
70.0, 27063.425131252425, -4162.632425145201, 14765.003593564463, -2935.3875440821107, 15061.499483764112, 7302.247858315452, -187500.02235174447, -187500.02235174447, -0.188, -0.754, -0.636, 192.0, 0.0, 0.0, 0.0, 0.0, 0.0, 0.0, 0.0, 0.0, 0.0, 1.6776147395497882E9, 0.0, 2023-02-28 12:05:39.549
71.0, 26990.022002461195, -4162.408907700647, 14229.209927226297, -2934.672288259541, 14772.35731749026, 7150.390106486096, -187500.02235174447, -187500.02235174447, -0.188, -0.754, -0.636, 192.0, 0.0, 0.0, 0.0, 0.0, 0.0, 0.0, 0.0, 0.0, 0.0, 1.6776147395538025E9, 0.0, 2023-02-28 12:05:39.553
72.0, 27097.55624503568, -4167.438050203091, 14811.182297609128, -2945.6469947870964, 15072.518893780578, 7456.944281690631, -187500.02235174447, -187500.02235174447, -0.188, -0.754, -0.636, 192.0, 0.0, 0.0, 0.0, 0.0, 0.0, 0.0, 0.0, 0.0, 0.0, 1.677614739557872E9, 0.0, 2023-02-28 12:05:39.557
73.0, 27183.543405955246, -4171.260198504949, 15440.04862785919, -2948.1950936550015, 15408.934999577405, 7659.875769600364, -187500.02235174447, -187500.02235174447, -0.188, -0.754, -0.636, 192.0, 0.0, 0.0, 0.0, 0.0, 0.0, 0.0, 0.0, 0.0, 0.0, 1.6776147395618217E9, 0.0, 2023-02-28 12:05:39.561
74.0, 27064.92269813093, -4172.981282828007, 14920.661141951221, -2939.4108580840657, 15143.32922021499, 7365.972681757532, -187500.02235174447, -187500.02235174447, -0.188, -0.754, -0.636, 192.0, 0.0, 0.0, 0.0, 0.0, 0.0, 0.0, 0.0, 0.0, 0.0, 1.677614739564758E9, 0.0, 2023-02-28 12:05:39.564
75.0, 26952.538127009648, -4174.501201450968, 14241.972773310277, -2937.7344772499177, 14781.946215861586, 7132.911042322045, -187500.02235174447, -187500.02235174447, -0.188, -0.754, -0.636, 192.0, 0.0, 0.0, 0.0, 0.0, 0.0, 0.0, 0.0, 0.0, 0.0, 1.6776147395688367E9, 0.0, 2023-02-28 12:05:39.568
76.0, 27044.314389743136, -4173.674186906122, 14660.039801602341, -2946.6528232875853, 14995.427727154223, 7387.095080267797, -187500.02235174447, -187500.02235174447, -0.188, -0.754, -0.636, 192.0, 0.0, 0.0, 0.0, 0.0, 0.0, 0.0, 0.0, 0.0, 0.0, 1.6776147395727751E9, 0.0, 2023-02-28 12:05:39.572
77.0, 27158.911783565498, -4176.468154963035, 15411.058415300658, -2951.659614045574, 15395.322787204123, 7661.75331613461, -187500.02235174447, -187500.02235174447, -0.188, -0.754, -0.636, 192.0, 0.0, 0.0, 0.0, 0.0, 0.0, 0.0, 0.0, 0.0, 0.0, 1.67761473957785E9, 0.0, 2023-02-28 12:05:39.577
78.0, 27080.255994827272, -4178.345701497281, 15074.687012992743, -2943.501227319387, 15226.433006099822, 7435.151330846707, -187500.02235174447, -187500.02235174447, -0.176, -0.756, -0.636, 192.0, 250.0, 128.0, 232.0, 96.0, 236.0, 32.0, 0.0, 0.0, 0.0, 1.6776147395818028E9, 0.0, 2023-02-28 12:05:39.581
79.0, 26957.679028234368, -4174.612960173245, 14295.236980347274, -2937.7344772499177, 14812.344588320804, 7141.605870915159, -187500.02235174447, -187500.02235174447, -0.176, -0.756, -0.636, 192.0, 0.0, 0.0, 0.0, 0.0, 0.0, 0.0, 0.0, 0.0, 0.0, 1.6776147395857985E9, 0.0, 2023-02-28 12:05:39.585
80.0, 26998.180389187386, -4175.194105529083, 14517.77094814431, -2944.6858697755183, 14923.253944308037, 7321.537413780381, -187500.02235174447, -187500.02235174447, -0.176, -0.756, -0.636, 192.0, 0.0, 0.0, 0.0, 0.0, 0.0, 0.0, 0.0, 0.0, 0.0, 1.6776147395899189E9, 0.0, 2023-02-28 12:05:39.589
81.0, 27113.69420453241, -4178.926846853119, 15336.515347542208, -2951.3913931121106, 15354.12852217299, 7645.928281060253, -187500.02235174447, -187500.02235174447, -0.176, -0.756, -0.636, 192.0, 0.0, 0.0, 0.0, 0.0, 0.0, 0.0, 0.0, 0.0, 0.0, 1.6776147395929153E9, 0.0, 2023-02-28 12:05:39.592
82.0, 27065.01210510875, -4179.128012553217, 15209.378625080422, -2944.529407564331, 15291.253065020212, 7502.519488635003, -187500.02235174447, -187500.02235174447, -0.176, -0.756, -0.636, 192.0, 0.0, 0.0, 0.0, 0.0, 0.0, 0.0, 0.0, 0.0, 0.0, 1.6776147395968227E9, 0.0, 2023-02-28 12:05:39.596
83.0, 26922.162106294883, -4181.273780020926, 14382.98992907881, -2938.852064472683, 14854.70114406361, 7165.097554337687, -187500.02235174447, -187500.02235174447, -0.176, -0.756, -0.636, 192.0, 0.0, 0.0, 0.0, 0.0, 0.0, 0.0, 0.0, 0.0, 0.0, 1.6776147396008787E9, 0.0, 2023-02-28 12:05:39.600
84.0, 26943.977408883264, -4184.134803311205, 14401.877153143545, -2946.2281401429345, 14856.913966764685, 7262.998195051932, -187500.02235174447, -187500.02235174447, -0.176, -0.756, -0.636, 192.0, 0.0, 0.0, 0.0, 0.0, 0.0, 0.0, 0.0, 0.0, 0.0, 1.6776147396048634E9, 0.0, 2023-02-28 12:05:39.604
85.0, 27081.664154727958, -4186.280570778915, 15231.193927668803, -2954.5876925692196, 15294.717585410785, 7613.9429347447085, -187500.02235174447, -187500.02235174447, -0.176, -0.756, -0.636, 192.0, 0.0, 0.0, 0.0, 0.0, 0.0, 0.0, 0.0, 0.0, 0.0, 1.6776147396099029E9, 0.0, 2023-02-28 12:05:39.609
86.0, 27074.109265102063, -4182.324312010326, 15321.65143747943, -2948.06098318827, 15349.926394215394, 7564.277358565017, -187500.02235174447, -187500.02235174447, -0.176, -0.756, -0.636, 192.0, 0.0, 0.0, 0.0, 0.0, 0.0, 0.0, 0.0, 0.0, 0.0, 1.6776147396138904E9, 0.0, 2023-02-28 12:05:39.613
87.0, 26927.727690664255, -4182.436070732602, 14504.426956704494, -2940.3719830956443, 14917.621304705299, 7210.717464770969, -187500.02235174447, -187500.02235174447, -0.176, -0.756, -0.636, 192.0, 0.0, 0.0, 0.0, 0.0, 0.0, 0.0, 0.0, 0.0, 0.0, 1.6776147396178412E9, 0.0, 2023-02-28 12:05:39.617
88.0, 26917.13296379244, -4186.682902179111, 14309.855021221045, -2945.825808742739, 14807.158983607173, 7212.28208688284, -187500.02235174447, -187500.02235174447, -0.178, -0.758, -0.638, 192.0, 250.0, 112.0, 232.0, 80.0, 236.0, 16.0, 0.0, 0.0, 0.0, 1.6776147396208327E9, 0.0, 2023-02-28 12:05:39.620
89.0, 27053.031570080708, -4188.269876035438, 15094.624769046875, -2954.4312303580323, 15218.788709496106, 7565.730221954611, -187500.02235174447, -187500.02235174447, -0.178, -0.758, -0.638, 192.0, 0.0, 0.0, 0.0, 0.0, 0.0, 0.0, 0.0, 0.0, 0.0, 1.6776147396250474E9, 0.0, 2023-02-28 12:05:39.625
90.0, 27079.384276793513, -4188.068710335339, 15400.575447151119, -2951.1902274120125, 15387.85730455605, 7607.9526672306865, -187500.02235174447, -187500.02235174447, -0.178, -0.758, -0.638, 192.0, 0.0, 0.0, 0.0, 0.0, 0.0, 0.0, 0.0, 0.0, 0.0, 1.6776147396289148E9, 0.0, 2023-02-28 12:05:39.628
91.0, 26937.38364426895, -4190.437995247602, 14645.891147362132, -2943.478875574932, 14989.973901507128, 7257.901997316122, -187500.02235174447, -187500.02235174447, -0.178, -0.758, -0.638, 192.0, 0.0, 0.0, 0.0, 0.0, 0.0, 0.0, 0.0, 0.0, 0.0, 1.6776147396329703E9, 0.0, 2023-02-28 12:05:39.632
92.0, 26893.909501303377, -4191.086195836806, 14252.120465292986, -2945.15525640908, 14773.96664309104, 7173.457106763972, -187500.02235174447, -187500.02235174447, -0.178, -0.758, -0.638, 192.0, 0.0, 0.0, 0.0, 0.0, 0.0, 0.0, 0.0, 0.0, 0.0, 1.677614739637941E9, 0.0, 2023-02-28 12:05:39.637
93.0, 27021.113278998528, -4195.511841238957, 14945.091598640873, -2955.481762347432, 15136.400179433846, 7507.302761948438, -187500.02235174447, -187500.02235174447, -0.178, -0.758, -0.638, 192.0, 0.0, 0.0, 0.0, 0.0, 0.0, 0.0, 0.0, 0.0, 0.0, 1.6776147396418874E9, 0.0, 2023-02-28 12:05:39.641
94.0, 27075.83034942512, -4196.87529765073, 15447.089427362613, -2955.191189669513, 15405.67164488693, 7642.7543333476, -187500.02235174447, -187500.02235174447, -0.178, -0.758, -0.638, 192.0, 0.0, 0.0, 0.0, 0.0, 0.0, 0.0, 0.0, 0.0, 0.0, 1.6776147396449504E9, 0.0, 2023-02-28 12:05:39.644
95.0, 26951.174670597873, -4195.288323794403, 14805.147326606195, -2945.088201175714, 15071.066030390983, 7316.68708523358, -187500.02235174447, -187500.02235174447, -0.178, -0.758, -0.638, 192.0, 0.0, 0.0, 0.0, 0.0, 0.0, 0.0, 0.0, 0.0, 0.0, 1.6776147396489272E9, 0.0, 2023-02-28 12:05:39.648
96.0, 26863.51112884416, -4196.472966250535, 14234.574345895571, -2943.5459308082977, 14763.550730174868, 7144.891577350089, -187500.02235174447, -187500.02235174447, -0.178, -0.758, -0.638, 192.0, 0.0, 0.0, 0.0, 0.0, 0.0, 0.0, 0.0, 0.0, 0.0, 1.6776147396528766E9, 0.0, 2023-02-28 12:05:39.652
97.0, 26970.643040018447, -4197.344684284292, 14788.607035709267, -2953.2018844129902, 15046.88144289034, 7442.370944305771, -187500.02235174447, -187500.02235174447, -0.178, -0.758, -0.638, 192.0, 0.0, 0.0, 0.0, 0.0, 0.0, 0.0, 0.0, 0.0, 0.0, 1.6776147396569684E9, 0.0, 2023-02-28 12:05:39.656
98.0, 27077.417323281446, -4195.333027283315, 15449.3469535526, -2955.3253001362446, 15400.642502384486, 7664.793153380532, -187500.02235174447, -187500.02235174447, -0.176, -0.756, -0.642, 192.0, 250.0, 128.0, 232.0, 96.0, 235.0, 240.0, 0.0, 0.0, 0.0, 1.6776147396610577E9, 0.0, 2023-02-28 12:05:39.661
99.0, 26975.7168860098, -4194.126033082728, 14961.76600000453, -2946.116381420658, 15148.403066206345, 7387.676225623635, -187500.02235174447, -187500.02235174447, -0.176, -0.756, -0.642, 192.0, 0.0, 0.0, 0.0, 0.0, 0.0, 0.0, 0.0, 0.0, 0.0, 1.677614739666051E9, 0.0, 2023-02-28 12:05:39.666
100.0, 26852.245849638686, -4199.02106511844, 14253.193349026842, -2943.9706139529485, 14772.223207023528, 7138.320164480229, -187500.02235174447, -187500.02235174447, -0.176, -0.756, -0.642, 192.0, 0.0, 0.0, 0.0, 0.0, 0.0, 0.0, 0.0, 0.0, 0.0, 1.6776147396700246E9, 0.0, 2023-02-28 12:05:39.670
101.0, 26929.448774987315, -4202.0832541088175, 14636.212842012983, -2952.7995530127946, 14969.432648352702, 7377.774402829934, -187500.02235174447, -187500.02235174447, -0.176, -0.756, -0.642, 192.0, 0.0, 0.0, 0.0, 0.0, 0.0, 0.0, 0.0, 0.0, 0.0, 1.6776147396729004E9, 0.0, 2023-02-28 12:05:39.672
102.0, 27060.005314350765, -4200.049245363384, 15408.040929799192, -2957.471067603954, 15379.162475962936, 7664.971967336174, -187500.02235174447, -187500.02235174447, -0.176, -0.756, -0.642, 192.0, 0.0, 0.0, 0.0, 0.0, 0.0, 0.0, 0.0, 0.0, 0.0, 1.6776147396769295E9, 0.0, 2023-02-28 12:05:39.676
103.0, 26990.893720494954, -4198.842251162798, 15111.098004710437, -2949.111515177669, 15229.897526490395, 7455.0443834119305, -187500.02235174447, -187500.02235174447, -0.176, -0.756, -0.642, 192.0, 0.0, 0.0, 0.0, 0.0, 0.0, 0.0, 0.0, 0.0, 0.0, 1.677614739680896E9, 0.0, 2023-02-28 12:05:39.680
104.0, 26863.779349777622, -4199.848079663287, 14314.682998023392, -2944.5964627976973, 14807.427204540636, 7150.099533808177, -187500.02235174447, -187500.02235174447, -0.176, -0.756, -0.642, 192.0, 0.0, 0.0, 0.0, 0.0, 0.0, 0.0, 0.0, 0.0, 0.0, 1.6776147396849613E9, 0.0, 2023-02-28 12:05:39.684
105.0, 26905.219483997764, -4205.54777449939, 14499.598979902146, -2953.224236157446, 14894.84487710534, 7314.116634621219, -187500.02235174447, -187500.02235174447, -0.176, -0.756, -0.642, 192.0, 0.0, 0.0, 0.0, 0.0, 0.0, 0.0, 0.0, 0.0, 0.0, 1.6776147396890476E9, 0.0, 2023-02-28 12:05:39.689
106.0, 27032.49031692628, -4208.83348093432, 15329.295734083145, -2961.1591054390797, 15329.206327105323, 7646.487074671635, -187500.02235174447, -187500.02235174447, -0.176, -0.756, -0.642, 192.0, 0.0, 0.0, 0.0, 0.0, 0.0, 0.0, 0.0, 0.0, 0.0, 1.6776147396939564E9, 0.0, 2023-02-28 12:05:39.693
107.0, 26998.225092676294, -4208.408797789669, 15246.63898308742, -2954.7218030359513, 15292.59416968753, 7518.880965576287, -187500.02235174447, -187500.02235174447, -0.176, -0.756, -0.642, 192.0, 0.0, 0.0, 0.0, 0.0, 0.0, 0.0, 0.0, 0.0, 0.0, 1.677614739697976E9, 0.0, 2023-02-28 12:05:39.697
108.0, 26857.096178185486, -4209.97341990154, 14413.611818982581, -2948.8656459886606, 14851.7060103066, 7174.731156197925, -187500.02235174447, -187500.02235174447, -0.176, -0.756, -0.642, 192.0, 0.0, 0.0, 0.0, 0.0, 0.0, 0.0, 0.0, 0.0, 0.0, 1.6776147397009943E9, 0.0, 2023-02-28 12:05:39.700
109.0, 26868.160291690863, -4215.427245548635, 14388.46610647036, -2956.733460036929, 14828.214326884072, 7254.392773436639, -187500.02235174447, -187500.02235174447, -0.18, -0.756, -0.646, 192.0, 250.0, 96.0, 232.0, 96.0, 235.0, 208.0, 0.0, 0.0, 0.0, 1.6776147397049794E9, 0.0, 2023-02-28 12:05:39.704
110.0, 26996.682822308878, -4221.439864807113, 15218.028750184627, -2966.8364485307275, 15257.21135821478, 7609.472585853647, -187500.02235174447, -187500.02235174447, -0.18, -0.756, -0.646, 192.0, 0.0, 0.0, 0.0, 0.0, 0.0, 0.0, 0.0, 0.0, 0.0, 1.6776147397089863E9, 0.0, 2023-02-28 12:05:39.708
111.0, 26994.96173798582, -4221.685733996122, 15356.52015882971, -2962.5225618508534, 15334.906021941428, 7572.122820868829, -187500.02235174447, -187500.02235174447, -0.18, -0.756, -0.646, 192.0, 0.0, 0.0, 0.0, 0.0, 0.0, 0.0, 0.0, 0.0, 0.0, 1.6776147397129903E9, 0.0, 2023-02-28 12:05:39.712
112.0, 26855.039817695597, -4219.316449083859, 14543.810730434745, -2953.3806983686327, 14911.161650557717, 7214.874889239656, -187500.02235174447, -187500.02235174447, -0.18, -0.756, -0.646, 192.0, 0.0, 0.0, 0.0, 0.0, 0.0, 0.0, 0.0, 0.0, 0.0, 1.6776147397170427E9, 0.0, 2023-02-28 12:05:39.717
113.0, 26834.40915756335, -4222.155120629683, 14304.11062289603, -2957.15814318158, 14781.40977399466, 7200.972104188455, -187500.02235174447, -187500.02235174447, -0.18, -0.756, -0.646, 192.0, 0.0, 0.0, 0.0, 0.0, 0.0, 0.0, 0.0, 0.0, 0.0, 1.6776147397220397E9, 0.0, 2023-02-28 12:05:39.722
114.0, 26970.933612696364, -4224.993792175507, 15076.966890927184, -2966.210599685979, 15184.456430012755, 7554.7778671715105, -187500.02235174447, -187500.02235174447, -0.18, -0.756, -0.646, 192.0, 0.0, 0.0, 0.0, 0.0, 0.0, 0.0, 0.0, 0.0, 0.0, 1.677614739725986E9, 0.0, 2023-02-28 12:05:39.725
115.0, 27006.115258469017, -4224.323239841848, 15427.732816664316, -2963.4166316290657, 15375.742659061272, 7616.021646979052, -187500.02235174447, -187500.02235174447, -0.18, -0.756, -0.646, 192.0, 0.0, 0.0, 0.0, 0.0, 0.0, 0.0, 0.0, 0.0, 0.0, 1.6776147397290535E9, 0.0, 2023-02-28 12:05:39.729
116.0, 26881.258413941672, -4220.322277584348, 14686.683080993067, -2953.1348291796244, 14993.505477131068, 7265.278072986373, -187500.02235174447, -187500.02235174447, -0.18, -0.756, -0.646, 192.0, 0.0, 0.0, 0.0, 0.0, 0.0, 0.0, 0.0, 0.0, 0.0, 1.677614739733072E9, 0.0, 2023-02-28 12:05:39.733
117.0, 26820.864000423433, -4220.031704906429, 14251.114636792498, -2953.9394919800156, 14757.426352194114, 7161.968310113944, -187500.02235174447, -187500.02235174447, -0.18, -0.756, -0.646, 192.0, 0.0, 0.0, 0.0, 0.0, 0.0, 0.0, 0.0, 0.0, 0.0, 1.6776147397370334E9, 0.0, 2023-02-28 12:05:39.737
118.0, 26951.57700199807, -4217.103626382784, 14918.582429716878, -2961.762602539373, 15105.733586041164, 7494.048177486441, -187500.02235174447, -187500.02235174447, -0.18, -0.756, -0.646, 192.0, 0.0, 0.0, 0.0, 0.0, 0.0, 0.0, 0.0, 0.0, 0.0, 1.6776147397409966E9, 0.0, 2023-02-28 12:05:39.740
119.0, 27034.92665707191, -4212.879146680731, 15457.706505978884, -2960.06386996077, 15396.529781404708, 7647.716420616677, -187500.02235174447, -187500.02235174447, -0.184, -0.75, -0.644, 192.0, 250.0, 64.0, 232.0, 144.0, 235.0, 224.0, 0.0, 0.0, 0.0, 1.67761473974502E9, 0.0, 2023-02-28 12:05:39.745
120.0, 26912.148524778906, -4213.572050758845, 14842.02770495745, -2950.7655442673617, 15078.352699083413, 7329.338172595284, -187500.02235174447, -187500.02235174447, -0.184, -0.75, -0.644, 192.0, 0.0, 0.0, 0.0, 0.0, 0.0, 0.0, 0.0, 0.0, 0.0, 1.677614739750038E9, 0.0, 2023-02-28 12:05:39.750
121.0, 26816.751279443655, -4214.801396703887, 14237.524776163671, -2949.8491227446943, 14755.749971359966, 7145.428019217017, -187500.02235174447, -187500.02235174447, -0.184, -0.75, -0.644, 192.0, 0.0, 0.0, 0.0, 0.0, 0.0, 0.0, 0.0, 0.0, 0.0, 1.6776147397540197E9, 0.0, 2023-02-28 12:05:39.754
122.0, 26934.14264132293, -4212.342704813803, 14759.281546983904, -2958.3204338932555, 15022.898021089795, 7436.626545980757, -187500.02235174447, -187500.02235174447, -0.184, -0.75, -0.644, 192.0, 0.0, 0.0, 0.0, 0.0, 0.0, 0.0, 0.0, 0.0, 0.0, 1.6776147397570734E9, 0.0, 2023-02-28 12:05:39.757
123.0, 27039.151136773962, -4210.331047812825, 15448.519939007752, -2960.5779600832416, 15387.85730455605, 7672.0574703285065, -187500.02235174447, -187500.02235174447, -0.184, -0.75, -0.644, 192.0, 0.0, 0.0, 0.0, 0.0, 0.0, 0.0, 0.0, 0.0, 0.0, 1.6776147397610612E9, 0.0, 2023-02-28 12:05:39.761
124.0, 26934.008530856197, -4212.275649580437, 14997.864067299852, -2951.592558812208, 15156.248528510157, 7402.137804286219, -187500.02235174447, -187500.02235174447, -0.184, -0.75, -0.644, 192.0, 0.0, 0.0, 0.0, 0.0, 0.0, 0.0, 0.0, 0.0, 0.0, 1.6776147397649972E9, 0.0, 2023-02-28 12:05:39.764
125.0, 26815.968968387722, -4215.561356015367, 14266.514988722205, -2948.3292041217333, 14766.791733120888, 7140.801208114768, -187500.02235174447, -187500.02235174447, -0.184, -0.75, -0.644, 192.0, 0.0, 0.0, 0.0, 0.0, 0.0, 0.0, 0.0, 0.0, 0.0, 1.6776147397690609E9, 0.0, 2023-02-28 12:05:39.769
126.0, 26893.596576881002, -4218.735303728021, 14609.055472499786, -2957.6722333040516, 14937.514357270522, 7368.498428880982, -187500.02235174447, -187500.02235174447, -0.184, -0.75, -0.644, 192.0, 0.0, 0.0, 0.0, 0.0, 0.0, 0.0, 0.0, 0.0, 0.0, 1.6776147397729905E9, 0.0, 2023-02-28 12:05:39.772
127.0, 27014.698328339855, -4221.708085740577, 15400.396633195476, -2963.7072043069847, 15355.871958240505, 7665.419002225281, -187500.02235174447, -187500.02235174447, -0.184, -0.75, -0.644, 192.0, 0.0, 0.0, 0.0, 0.0, 0.0, 0.0, 0.0, 0.0, 0.0, 1.677614739777056E9, 0.0, 2023-02-28 12:05:39.777
128.0, 26954.81800494409, -4221.484568296024, 15146.637278394375, -2956.2864251478227, 15233.451453858788, 7468.9024649742205, -187500.02235174447, -187500.02235174447, -0.184, -0.75, -0.644, 192.0, 0.0, 0.0, 0.0, 0.0, 0.0, 0.0, 0.0, 0.0, 0.0, 1.677614739782104E9, 0.0, 2023-02-28 12:05:39.782
129.0, 26814.87373290941, -4224.88203345323, 14336.07361746712, -2952.531332079331, 14807.673073729644, 7149.719554152436, -187500.02235174447, -187500.02235174447, -0.182, -0.756, -0.642, 192.0, 250.0, 80.0, 232.0, 96.0, 235.0, 240.0, 0.0, 0.0, 0.0, 1.6776147397850432E9, 0.0, 2023-02-28 12:05:39.785
130.0, 26852.82699499452, -4228.994754433007, 14478.364822669606, -2961.024994972348, 14873.27544370597, 7296.972846623999, -187500.02235174447, -187500.02235174447, -0.182, -0.756, -0.642, 192.0, 0.0, 0.0, 0.0, 0.0, 0.0, 0.0, 0.0, 0.0, 0.0, 1.6776147397890227E9, 0.0, 2023-02-28 12:05:39.789
131.0, 26996.34754614205, -4228.637126521722, 15314.230658320268, -2968.7363468094286, 15310.587323974052, 7634.975926277152, -187500.02235174447, -187500.02235174447, -0.182, -0.756, -0.642, 192.0, 0.0, 0.0, 0.0, 0.0, 0.0, 0.0, 0.0, 0.0, 0.0, 1.6776147397931747E9, 0.0, 2023-02-28 12:05:39.793
132.0, 26970.128949895974, -4227.0948561543055, 15274.086925278536, -2963.8413147737165, 15296.639835433942, 7522.613706900323, -187500.02235174447, -187500.02235174447, -0.182, -0.756, -0.642, 192.0, 0.0, 0.0, 0.0, 0.0, 0.0, 0.0, 0.0, 0.0, 0.0, 1.6776147397970624E9, 0.0, 2023-02-28 12:05:39.797
133.0, 26828.575352260516, -4226.804283476386, 14436.835281471645, -2957.493419348409, 14857.6068708428, 7173.367699786151, -187500.02235174447, -187500.02235174447, -0.182, -0.756, -0.642, 192.0, 0.0, 0.0, 0.0, 0.0, 0.0, 0.0, 0.0, 0.0, 0.0, 1.677614739801133E9, 0.0, 2023-02-28 12:05:39.801
134.0, 26841.204087877763, -4226.290193353915, 14365.957899803865, -2962.4555066174876, 14810.936428420118, 7235.14792146062, -187500.02235174447, -187500.02235174447, -0.182, -0.756, -0.642, 192.0, 0.0, 0.0, 0.0, 0.0, 0.0, 0.0, 0.0, 0.0, 0.0, 1.6776147398060725E9, 0.0, 2023-02-28 12:05:39.806
135.0, 26988.926766982888, -4222.713914241065, 15188.323281803523, -2968.244608431412, 15241.54278535161, 7593.535792057013, -187500.02235174447, -187500.02235174447, -0.182, -0.756, -0.642, 192.0, 0.0, 0.0, 0.0, 0.0, 0.0, 0.0, 0.0, 0.0, 0.0, 1.6776147398091311E9, 0.0, 2023-02-28 12:05:39.809
136.0, 26992.167769928907, -4223.049190407895, 15370.735868303283, -2963.8636665181716, 15347.065370925115, 7581.018815162041, -187500.02235174447, -187500.02235174447, -0.182, -0.756, -0.642, 192.0, 0.0, 0.0, 0.0, 0.0, 0.0, 0.0, 0.0, 0.0, 0.0, 1.677614739813079E9, 0.0, 2023-02-28 12:05:39.813
137.0, 26852.558774061057, -4222.624507263245, 14567.324765601727, -2954.9453204805045, 14929.221860077603, 7225.201395178008, -187500.02235174447, -187500.02235174447, -0.182, -0.756, -0.642, 192.0, 0.0, 0.0, 0.0, 0.0, 0.0, 0.0, 0.0, 0.0, 0.0, 1.6776147398171327E9, 0.0, 2023-02-28 12:05:39.817
138.0, 26816.773631188113, -4227.787760232421, 14284.955177897833, -2959.2368554159234, 14773.899587857675, 7193.640732007115, -187500.02235174447, -187500.02235174447, -0.182, -0.756, -0.642, 192.0, 0.0, 0.0, 0.0, 0.0, 0.0, 0.0, 0.0, 0.0, 0.0, 1.6776147398211164E9, 0.0, 2023-02-28 12:05:39.821
139.0, 26949.207717085807, -4231.45344632309, 15042.679314932742, -2969.339843909722, 15164.85395012545, 7544.026678088508, -187500.02235174447, -187500.02235174447, -0.18, -0.75, -0.64, 192.0, 250.0, 96.0, 232.0, 144.0, 236.0, 0.0, 0.0, 0.0, 0.0, 1.67761473982516E9, 0.0, 2023-02-28 12:05:39.825
140.0, 27006.271720680204, -4228.592423032811, 15433.924249878437, -2966.8140967862723, 15379.94478701887, 7624.269440683061, -187500.02235174447, -187500.02235174447, -0.18, -0.75, -0.64, 192.0, 0.0, 0.0, 0.0, 0.0, 0.0, 0.0, 0.0, 0.0, 0.0, 1.6776147398290758E9, 0.0, 2023-02-28 12:05:39.829
141.0, 26869.166120191352, -4229.195920133105, 14716.232087162984, -2957.135791437124, 15007.564724393455, 7277.795049881345, -187500.02235174447, -187500.02235174447, -0.18, -0.75, -0.64, 192.0, 0.0, 0.0, 0.0, 0.0, 0.0, 0.0, 0.0, 0.0, 0.0, 1.6776147398341217E9, 0.0, 2023-02-28 12:05:39.834
142.0, 26803.78726765958, -4231.185225389627, 14243.626802399971, -2957.739288537418, 14752.77718934741, 7155.642766433092, -187500.02235174447, -187500.02235174447, -0.18, -0.75, -0.64, 192.0, 0.0, 0.0, 0.0, 0.0, 0.0, 0.0, 0.0, 0.0, 0.0, 1.677614739837058E9, 0.0, 2023-02-28 12:05:39.837
143.0, 26919.23402777124, -4234.739152758021, 14886.217103745594, -2968.021090986859, 15080.967853184684, 7480.659482557712, -187500.02235174447, -187500.02235174447, -0.18, -0.75, -0.64, 192.0, 0.0, 0.0, 0.0, 0.0, 0.0, 0.0, 0.0, 0.0, 0.0, 1.6776147398400996E9, 0.0, 2023-02-28 12:05:39.840
144.0, 27013.06665099462, -4230.492321311513, 15461.573357769652, -2968.177553198046, 15385.398612665966, 7654.1537230198055, -187500.02235174447, -187500.02235174447, -0.18, -0.75, -0.64, 192.0, 0.0, 0.0, 0.0, 0.0, 0.0, 0.0, 0.0, 0.0, 0.0, 1.677614739845069E9, 0.0, 2023-02-28 12:05:39.845
145.0, 26902.17964675184, -4226.357248587281, 14874.482437906558, -2957.5157710928647, 15084.36531834189, 7344.447951847072, -187500.02235174447, -187500.02235174447, -0.18, -0.75, -0.64, 192.0, 0.0, 0.0, 0.0, 0.0, 0.0, 0.0, 0.0, 0.0, 0.0, 1.677614739849118E9, 0.0, 2023-02-28 12:05:39.849
146.0, 26799.562787957526, -4228.190091632616, 14239.379970953461, -2956.0629077032695, 14746.786921833387, 7140.220062758931, -187500.02235174447, -187500.02235174447, -0.18, -0.75, -0.64, 192.0, 0.0, 0.0, 0.0, 0.0, 0.0, 0.0, 0.0, 0.0, 0.0, 1.6776147398531313E9, 0.0, 2023-02-28 12:05:39.853
147.0, 26898.290443216618, -4230.045286422406, 14726.849165779253, -2964.981253740937, 14994.220732953638, 7419.862737639277, -187500.02235174447, -187500.02235174447, -0.18, -0.75, -0.64, 192.0, 0.0, 0.0, 0.0, 0.0, 0.0, 0.0, 0.0, 0.0, 0.0, 1.6776147398571305E9, 0.0, 2023-02-28 12:05:39.857
148.0, 27016.30765394064, -4228.1453881437055, 15441.523842993241, -2967.886980520127, 15375.027403238702, 7669.397612738325, -187500.02235174447, -187500.02235174447, -0.18, -0.75, -0.64, 192.0, 0.0, 0.0, 0.0, 0.0, 0.0, 0.0, 0.0, 0.0, 0.0, 1.6776147398621428E9, 0.0, 2023-02-28 12:05:39.862
149.0, 26938.43417625835, -4221.439864807113, 15026.764872880563, -2957.046384459303, 15166.396220492867, 7415.9511823595985, -187500.02235174447, -187500.02235174447, -0.18, -0.748, -0.64, 192.0, 250.0, 96.0, 232.0, 160.0, 236.0, 0.0, 0.0, 0.0, 0.0, 1.6776147398651154E9, 0.0, 2023-02-28 12:05:39.865
150.0, 26808.68229969529, -4221.395161318203, 14272.125276580487, -2952.1290006791355, 14766.322346487326, 7140.55533892576, -187500.02235174447, -187500.02235174447, -0.18, -0.748, -0.64, 192.0, 0.0, 0.0, 0.0, 0.0, 0.0, 0.0, 0.0, 0.0, 0.0, 1.6776147398681266E9, 0.0, 2023-02-28 12:05:39.868
151.0, 26875.491663872202, -4223.831501463831, 14574.633786038612, -2960.6450153166074, 14920.974066373596, 7350.102943194264, -187500.02235174447, -187500.02235174447, -0.18, -0.748, -0.64, 192.0, 0.0, 0.0, 0.0, 0.0, 0.0, 0.0, 0.0, 0.0, 0.0, 1.6776147398731363E9, 0.0, 2023-02-28 12:05:39.873
152.0, 27007.00932824723, -4223.607984019278, 15379.94478701887, -2966.210599685979, 15347.735923258773, 7659.1381620333395, -187500.02235174447, -187500.02235174447, -0.18, -0.748, -0.64, 192.0, 0.0, 0.0, 0.0, 0.0, 0.0, 0.0, 0.0, 0.0, 0.0, 1.6776147398771267E9, 0.0, 2023-02-28 12:05:39.877
153.0, 26953.56630725459, -4222.400989818691, 15168.229063538201, -2958.990986226915, 15243.06270397457, 7482.268808158495, -187500.02235174447, -187500.02235174447, -0.18, -0.748, -0.64, 192.0, 0.0, 0.0, 0.0, 0.0, 0.0, 0.0, 0.0, 0.0, 0.0, 1.6776147398811185E9, 0.0, 2023-02-28 12:05:39.881
154.0, 26820.081689367496, -4222.2221758630485, 14344.611983849049, -2953.023070457348, 14808.276570829938, 7156.670946678037, -187500.02235174447, -187500.02235174447, -0.18, -0.748, -0.64, 192.0, 0.0, 0.0, 0.0, 0.0, 0.0, 0.0, 0.0, 0.0, 0.0, 1.6776147398851385E9, 0.0, 2023-02-28 12:05:39.885
155.0, 26855.017465951143, -4223.697390997099, 14443.8090257417, -2960.533256594331, 14851.303678906403, 7292.457794244027, -187500.02235174447, -187500.02235174447, -0.18, -0.748, -0.64, 192.0, 0.0, 0.0, 0.0, 0.0, 0.0, 0.0, 0.0, 0.0, 0.0, 1.677614739890206E9, 0.0, 2023-02-28 12:05:39.890
156.0, 26999.25327292124, -4223.272707852449, 15283.429954460855, -2967.663463075574, 15291.74480339823, 7639.602737379401, -187500.02235174447, -187500.02235174447, -0.18, -0.748, -0.64, 192.0, 0.0, 0.0, 0.0, 0.0, 0.0, 0.0, 0.0, 0.0, 0.0, 1.6776147398931596E9, 0.0, 2023-02-28 12:05:39.893
157.0, 26977.68383952187, -4221.506920040479, 15291.54363769813, -2960.1979804275015, 15302.183068058857, 7549.949890369165, -187500.02235174447, -187500.02235174447, -0.18, -0.748, -0.64, 192.0, 0.0, 0.0, 0.0, 0.0, 0.0, 0.0, 0.0, 0.0, 0.0, 1.677614739896165E9, 0.0, 2023-02-28 12:05:39.896
158.0, 26827.8824481824, -4220.299925839892, 14454.940194480443, -2950.96670996746, 14862.256033689504, 7195.339464585718, -187500.02235174447, -187500.02235174447, -0.18, -0.748, -0.64, 192.0, 0.0, 0.0, 0.0, 0.0, 0.0, 0.0, 0.0, 0.0, 0.0, 1.6776147399011185E9, 0.0, 2023-02-28 12:05:39.901
159.0, 26829.000035405166, -4221.261050851471, 14338.532309357204, -2954.9676722249596, 14794.127916589729, 7238.344220917728, -187500.02235174447, -187500.02235174447, -0.18, -0.75, -0.638, 192.0, 250.0, 96.0, 232.0, 144.0, 236.0, 16.0, 0.0, 0.0, 0.0, 1.6776147399052172E9, 0.0, 2023-02-28 12:05:39.905
160.0, 26974.37578134248, -4220.1658153731605, 15151.3758482189, -2963.0366519733257, 15220.53214556362, 7596.910905469765, -187500.02235174447, -187500.02235174447, -0.18, -0.75, -0.638, 192.0, 0.0, 0.0, 0.0, 0.0, 0.0, 0.0, 0.0, 0.0, 0.0, 1.677614739909233E9, 0.0, 2023-02-28 12:05:39.909
161.0, 26993.933557740875, -4218.087103138817, 15378.447220140366, -2958.8345240157278, 15346.059542424626, 7599.190783404206, -187500.02235174447, -187500.02235174447, -0.18, -0.75, -0.638, 192.0, 0.0, 0.0, 0.0, 0.0, 0.0, 0.0, 0.0, 0.0, 0.0, 1.67761473991329E9, 0.0, 2023-02-28 12:05:39.913
162.0, 26855.97859096272, -4217.438902549613, 14585.541437332802, -2950.564378567264, 14930.71942695611, 7237.360744161695, -187500.02235174447, -187500.02235174447, -0.18, -0.75, -0.638, 192.0, 0.0, 0.0, 0.0, 0.0, 0.0, 0.0, 0.0, 0.0, 0.0, 1.6776147399181652E9, 0.0, 2023-02-28 12:05:39.918
163.0, 26814.49375325367, -4222.244527607504, 14261.083514819566, -2954.542989080309, 14755.124122515217, 7183.895371424601, -187500.02235174447, -187500.02235174447, -0.18, -0.75, -0.638, 192.0, 0.0, 0.0, 0.0, 0.0, 0.0, 0.0, 0.0, 0.0, 0.0, 1.6776147399212346E9, 0.0, 2023-02-28 12:05:39.921
164.0, 26946.167879839886, -4226.1560828871825, 14998.713433589153, -2964.9365502520263, 15138.791816090563, 7529.520395937014, -187500.02235174447, -187500.02235174447, -0.18, -0.75, -0.638, 192.0, 0.0, 0.0, 0.0, 0.0, 0.0, 0.0, 0.0, 0.0, 0.0, 1.6776147399241877E9, 0.0, 2023-02-28 12:05:39.924
165.0, 26995.632290319478, -4228.0336294214285, 15431.800834155183, -2964.1542391960907, 15373.261615426734, 7626.437559895225, -187500.02235174447, -187500.02235174447, -0.18, -0.75, -0.638, 192.0, 0.0, 0.0, 0.0, 0.0, 0.0, 0.0, 0.0, 0.0, 0.0, 1.6776147399291792E9, 0.0, 2023-02-28 12:05:39.929
166.0, 26853.586954306003, -4230.782893989432, 14737.734465328987, -2955.884093747627, 15008.905829060774, 7282.377157494683, -187500.02235174447, -187500.02235174447, -0.18, -0.75, -0.638, 192.0, 0.0, 0.0, 0.0, 0.0, 0.0, 0.0, 0.0, 0.0, 0.0, 1.6776147399332151E9, 0.0, 2023-02-28 12:05:39.933
167.0, 26780.697915637247, -4231.878129467742, 14227.801767325613, -2956.7781635258393, 14732.571212359813, 7143.572824427227, -187500.02235174447, -187500.02235174447, -0.18, -0.75, -0.638, 192.0, 0.0, 0.0, 0.0, 0.0, 0.0, 0.0, 0.0, 0.0, 0.0, 1.6776147399373567E9, 0.0, 2023-02-28 12:05:39.937
168.0, 26910.0027573112, -4229.97823118904, 14842.608850313289, -2965.2941781633112, 15052.4023237708, 7461.638148026246, -187500.02235174447, -187500.02235174447, -0.18, -0.75, -0.638, 192.0, 0.0, 0.0, 0.0, 0.0, 0.0, 0.0, 0.0, 0.0, 0.0, 1.6776147399412098E9, 0.0, 2023-02-28 12:05:39.941
169.0, 27007.63517709198, -4225.016143919962, 15450.732761708829, -2965.316529907767, 15379.296586429668, 7650.398629951314, -187500.02235174447, -187500.02235174447, -0.18, -0.752, -0.642, 192.0, 250.0, 96.0, 232.0, 128.0, 235.0, 240.0, 0.0, 0.0, 0.0, 1.6776147399451787E9, 0.0, 2023-02-28 12:05:39.945
170.0, 26889.170931478853, -4226.200786376094, 14895.269560249992, -2956.755811781384, 15089.908550966806, 7348.381858871206, -187500.02235174447, -187500.02235174447, -0.18, -0.752, -0.642, 192.0, 0.0, 0.0, 0.0, 0.0, 0.0, 0.0, 0.0, 0.0, 0.0, 1.6776147399492807E9, 0.0, 2023-02-28 12:05:39.949
171.0, 26785.50354069514, -4229.195920133105, 14233.546165650627, -2954.990023969415, 14733.10765422674, 7130.273536476319, -187500.02235174447, -187500.02235174447, -0.18, -0.752, -0.642, 192.0, 0.0, 0.0, 0.0, 0.0, 0.0, 0.0, 0.0, 0.0, 0.0, 1.6776147399522693E9, 0.0, 2023-02-28 12:05:39.952
172.0, 26888.053344256085, -4229.486492811024, 14685.967825170497, -2963.1037072066915, 14967.689212285188, 7396.08048153883, -187500.02235174447, -187500.02235174447, -0.18, -0.752, -0.642, 192.0, 0.0, 0.0, 0.0, 0.0, 0.0, 0.0, 0.0, 0.0, 0.0, 1.6776147399572556E9, 0.0, 2023-02-28 12:05:39.957
173.0, 26996.235787419773, -4229.642955022211, 15424.782386396217, -2966.2329514304342, 15363.046868210658, 7661.105115545406, -187500.02235174447, -187500.02235174447, -0.18, -0.752, -0.642, 192.0, 0.0, 0.0, 0.0, 0.0, 0.0, 0.0, 0.0, 0.0, 0.0, 1.677614739961196E9, 0.0, 2023-02-28 12:05:39.961
174.0, 26908.70635613279, -4224.8596817087755, 15047.999030113106, -2956.4875908479203, 15170.754810661652, 7423.260202796484, -187500.02235174447, -187500.02235174447, -0.18, -0.752, -0.642, 192.0, 0.0, 0.0, 0.0, 0.0, 0.0, 0.0, 0.0, 0.0, 0.0, 1.677614739964264E9, 0.0, 2023-02-28 12:05:39.964
175.0, 26783.38012497188, -4224.770274730954, 14275.902721393433, -2952.531332079331, 14758.543939416879, 7136.822597601724, -187500.02235174447, -187500.02235174447, -0.18, -0.752, -0.642, 192.0, 0.0, 0.0, 0.0, 0.0, 0.0, 0.0, 0.0, 0.0, 0.0, 1.6776147399682486E9, 0.0, 2023-02-28 12:05:39.968
176.0, 26845.987361191197, -4225.150254386694, 14539.25097456586, -2959.795649027306, 14897.795307373442, 7331.59569878527, -187500.02235174447, -187500.02235174447, -0.18, -0.752, -0.642, 192.0, 0.0, 0.0, 0.0, 0.0, 0.0, 0.0, 0.0, 0.0, 0.0, 1.6776147399732623E9, 0.0, 2023-02-28 12:05:39.973
177.0, 26985.797522759145, -4222.088065396317, 15356.967193718816, -2963.8636665181716, 15332.380274817977, 7651.85149334091, -187500.02235174447, -187500.02235174447, -0.18, -0.752, -0.642, 192.0, 0.0, 0.0, 0.0, 0.0, 0.0, 0.0, 0.0, 0.0, 0.0, 1.677614739977243E9, 0.0, 2023-02-28 12:05:39.977
178.0, 26935.439042501337, -4223.473873552546, 15187.25039806967, -2956.219369914457, 15248.851805788496, 7487.946151250143, -187500.02235174447, -187500.02235174447, -0.18, -0.752, -0.642, 192.0, 0.0, 0.0, 0.0, 0.0, 0.0, 0.0, 0.0, 0.0, 0.0, 1.6776147399812496E9, 0.0, 2023-02-28 12:05:39.981
179.0, 26783.78245637208, -4225.418475320158, 14355.944318287888, -2949.469143088954, 14805.147326606195, 7153.854626876668, -187500.02235174447, -187500.02235174447, -0.18, -0.752, -0.638, 192.0, 250.0, 96.0, 232.0, 128.0, 236.0, 16.0, 0.0, 0.0, 0.0, 1.6776147399853103E9, 0.0, 2023-02-28 12:05:39.985
180.0, 26814.27023580912, -4224.993792175507, 14412.94126664892, -2955.504114091887, 14825.398007082702, 7274.174067279586, -187500.02235174447, -187500.02235174447, -0.18, -0.752, -0.638, 192.0, 0.0, 0.0, 0.0, 0.0, 0.0, 0.0, 0.0, 0.0, 0.0, 1.6776147399883013E9, 0.0, 2023-02-28 12:05:39.988
181.0, 26952.694589220835, -4225.93256544263, 15251.466959889765, -2963.081355462236, 15269.996556043216, 7628.180995962739, -187500.02235174447, -187500.02235174447, -0.18, -0.752, -0.638, 192.0, 0.0, 0.0, 0.0, 0.0, 0.0, 0.0, 0.0, 0.0, 0.0, 1.6776147399922335E9, 0.0, 2023-02-28 12:05:39.992
182.0, 26922.698548161814, -4228.368905588259, 15298.271512779178, -2957.851047259694, 15302.093661081037, 7551.335698525393, -187500.02235174447, -187500.02235174447, -0.18, -0.752, -0.638, 192.0, 0.0, 0.0, 0.0, 0.0, 0.0, 0.0, 0.0, 0.0, 0.0, 1.677614739996302E9, 0.0, 2023-02-28 12:05:39.996
183.0, 26798.467552479215, -4225.530234042434, 14465.847845774633, -2949.402087855588, 14862.881882534253, 7190.80206046129, -187500.02235174447, -187500.02235174447, -0.18, -0.752, -0.638, 192.0, 0.0, 0.0, 0.0, 0.0, 0.0, 0.0, 0.0, 0.0, 0.0, 1.6776147400013125E9, 0.0, 2023-02-28 12:05:40.001
184.0, 26796.29943326705, -4226.379600331736, 14307.977474686799, -2954.4312303580323, 14774.033698324407, 7213.556136316793, -187500.02235174447, -187500.02235174447, -0.18, -0.752, -0.638, 192.0, 0.0, 0.0, 0.0, 0.0, 0.0, 0.0, 0.0, 0.0, 0.0, 1.6776147400052469E9, 0.0, 2023-02-28 12:05:40.005
185.0, 26913.199056768306, -4231.878129467742, 15112.506164611123, -2963.930721751538, 15195.252322584669, 7571.8545999353655, -187500.02235174447, -187500.02235174447, -0.18, -0.752, -0.638, 192.0, 0.0, 0.0, 0.0, 0.0, 0.0, 0.0, 0.0, 0.0, 0.0, 1.6776147400094154E9, 0.0, 2023-02-28 12:05:40.009
186.0, 26917.401184725906, -4234.9626702025735, 15380.57063586362, -2961.2932159058114, 15342.304449356134, 7592.507611812069, -187500.02235174447, -187500.02235174447, -0.18, -0.752, -0.638, 192.0, 0.0, 0.0, 0.0, 0.0, 0.0, 0.0, 0.0, 0.0, 0.0, 1.677614740013259E9, 0.0, 2023-02-28 12:05:40.013
187.0, 26797.707593167735, -4229.106513155283, 14601.768803807356, -2952.3972216125994, 14934.04983687995, 7233.449188882017, -187500.02235174447, -187500.02235174447, -0.18, -0.752, -0.638, 192.0, 0.0, 0.0, 0.0, 0.0, 0.0, 0.0, 0.0, 0.0, 0.0, 1.6776147400174031E9, 0.0, 2023-02-28 12:05:40.017
188.0, 26773.09832252244, -4225.396123575702, 14239.603488398016, -2953.3583466241776, 14736.594526361767, 7166.617472960648, -187500.02235174447, -187500.02235174447, -0.18, -0.752, -0.638, 192.0, 0.0, 0.0, 0.0, 0.0, 0.0, 0.0, 0.0, 0.0, 0.0, 1.67761474002025E9, 0.0, 2023-02-28 12:05:40.020
189.0, 26880.18553020782, -4231.922832956652, 14959.396715092269, -2963.1707624400574, 15112.595571588943, 7508.308590448927, -187500.02235174447, -187500.02235174447, -0.178, -0.754, -0.638, 192.0, 250.0, 112.0, 232.0, 112.0, 236.0, 16.0, 0.0, 0.0, 0.0, 1.6776147400243082E9, 0.0, 2023-02-28 12:05:40.024
190.0, 26928.57705695356, -4231.475798067546, 15429.275087031734, -2961.8743612616495, 15363.18097867739, 7627.219870951161, -187500.02235174447, -187500.02235174447, -0.178, -0.754, -0.638, 192.0, 0.0, 0.0, 0.0, 0.0, 0.0, 0.0, 0.0, 0.0, 0.0, 1.677614740029399E9, 0.0, 2023-02-28 12:05:40.029
191.0, 26803.34023277047, -4229.0841614108285, 14756.934613816096, -2952.6430908016077, 15011.409224439769, 7292.703663433035, -187500.02235174447, -187500.02235174447, -0.178, -0.754, -0.638, 192.0, 0.0, 0.0, 0.0, 0.0, 0.0, 0.0, 0.0, 0.0, 0.0, 1.6776147400333636E9, 0.0, 2023-02-28 12:05:40.033
192.0, 26722.046938186522, -4230.157045144683, 14212.714339818282, -2952.151352423591, 14718.243744163961, 7136.6661353905365, -187500.02235174447, -187500.02235174447, -0.178, -0.754, -0.638, 192.0, 0.0, 0.0, 0.0, 0.0, 0.0, 0.0, 0.0, 0.0, 0.0, 1.67761474003728E9, 0.0, 2023-02-28 12:05:40.037
193.0, 26836.063186653042, -4230.894652711708, 14796.474849757535, -2961.2932159058114, 15022.40628271178, 7445.7684094629785, -187500.02235174447, -187500.02235174447, -0.178, -0.754, -0.638, 192.0, 0.0, 0.0, 0.0, 0.0, 0.0, 0.0, 0.0, 0.0, 0.0, 1.6776147400412538E9, 0.0, 2023-02-28 12:05:40.041
194.0, 26911.075641045052, -4232.2581091234815, 15434.147767322991, -2962.2543409173895, 15366.153760689946, 7653.170246263772, -187500.02235174447, -187500.02235174447, -0.178, -0.754, -0.638, 192.0, 0.0, 0.0, 0.0, 0.0, 0.0, 0.0, 0.0, 0.0, 0.0, 1.67761474004435E9, 0.0, 2023-02-28 12:05:40.044
195.0, 26806.06714559402, -4227.497187554502, 14911.027540090983, -2952.1290006791355, 15094.155382413315, 7363.670452078635, -187500.02235174447, -187500.02235174447, -0.178, -0.754, -0.638, 192.0, 0.0, 0.0, 0.0, 0.0, 0.0, 0.0, 0.0, 0.0, 0.0, 1.677614740048313E9, 0.0, 2023-02-28 12:05:40.048
196.0, 26695.493065773615, -4228.614774777267, 14224.940744035333, -2951.1678756675574, 14724.457529122536, 7129.424170187017, -187500.02235174447, -187500.02235174447, -0.178, -0.754, -0.638, 192.0, 0.0, 0.0, 0.0, 0.0, 0.0, 0.0, 0.0, 0.0, 0.0, 1.677614740052366E9, 0.0, 2023-02-28 12:05:40.052
197.0, 26777.658078391323, -4230.715838756066, 14645.734685150945, -2960.82382927225, 14941.917650928219, 7380.546019142392, -187500.02235174447, -187500.02235174447, -0.178, -0.754, -0.638, 192.0, 0.0, 0.0, 0.0, 0.0, 0.0, 0.0, 0.0, 0.0, 0.0, 1.6776147400572863E9, 0.0, 2023-02-28 12:05:40.057
198.0, 26885.214672710263, -4232.146350401205, 15405.112851275546, -2965.0036054853927, 15347.80297849214, 7658.221740510672, -187500.02235174447, -187500.02235174447, -0.178, -0.754, -0.638, 192.0, 0.0, 0.0, 0.0, 0.0, 0.0, 0.0, 0.0, 0.0, 0.0, 1.6776147400613625E9, 0.0, 2023-02-28 12:05:40.061
199.0, 26806.40242176085, -4228.458312566079, 15064.092286120927, -2955.5488175807977, 15176.38745026439, 7434.167854090674, -187500.02235174447, -187500.02235174447, -0.182, -0.762, -0.64, 192.0, 250.0, 80.0, 232.0, 48.0, 236.0, 0.0, 0.0, 0.0, 0.0, 1.677614740065441E9, 0.0, 2023-02-28 12:05:40.065
200.0, 26683.13255108983, -4223.250356107993, 14274.360451026017, -2949.1785704110353, 14758.901567328165, 7137.694315635481, -187500.02235174447, -187500.02235174447, -0.182, -0.762, -0.64, 192.0, 0.0, 0.0, 0.0, 0.0, 0.0, 0.0, 0.0, 0.0, 0.0, 1.6776147400693877E9, 0.0, 2023-02-28 12:05:40.069
201.0, 26732.552258080515, -4227.2066148765825, 14498.548447912748, -2957.739288537418, 14870.70499309361, 7318.430521301094, -187500.02235174447, -187500.02235174447, -0.182, -0.762, -0.64, 192.0, 0.0, 0.0, 0.0, 0.0, 0.0, 0.0, 0.0, 0.0, 0.0, 1.6776147400724363E9, 0.0, 2023-02-28 12:05:40.072
202.0, 26851.84351823849, -4233.21923413506, 15326.881745681972, -2964.668329318563, 15307.346321028033, 7645.727115360155, -187500.02235174447, -187500.02235174447, -0.182, -0.762, -0.64, 192.0, 0.0, 0.0, 0.0, 0.0, 0.0, 0.0, 0.0, 0.0, 0.0, 1.6776147400763955E9, 0.0, 2023-02-28 12:05:40.076
203.0, 26777.658078391323, -4236.080257425339, 15198.202752852769, -2957.9404542375155, 15243.35327665249, 7499.300837433439, -187500.02235174447, -187500.02235174447, -0.182, -0.762, -0.64, 192.0, 0.0, 0.0, 0.0, 0.0, 0.0, 0.0, 0.0, 0.0, 0.0, 1.6776147400803335E9, 0.0, 2023-02-28 12:05:40.080
204.0, 26664.17827179173, -4224.613812519767, 14362.336917202107, -2949.0668116887587, 14804.297960316893, 7164.18113281502, -187500.02235174447, -187500.02235174447, -0.182, -0.762, -0.64, 192.0, 0.0, 0.0, 0.0, 0.0, 0.0, 0.0, 0.0, 0.0, 0.0, 1.6776147400844266E9, 0.0, 2023-02-28 12:05:40.084
205.0, 26718.67182477377, -4217.014219404962, 14377.17847552043, -2952.620739057152, 14809.818841197353, 7266.529770675871, -187500.02235174447, -187500.02235174447, -0.182, -0.762, -0.64, 192.0, 0.0, 0.0, 0.0, 0.0, 0.0, 0.0, 0.0, 0.0, 0.0, 1.6776147400893853E9, 0.0, 2023-02-28 12:05:40.089
206.0, 26843.372207089928, -4221.685733996122, 15215.324189105535, -2960.9132362500713, 15252.517491879165, 7622.190728448717, -187500.02235174447, -187500.02235174447, -0.182, -0.762, -0.64, 192.0, 0.0, 0.0, 0.0, 0.0, 0.0, 0.0, 0.0, 0.0, 0.0, 1.6776147400933883E9, 0.0, 2023-02-28 12:05:40.093
207.0, 26813.7784974311, -4225.865510209263, 15309.22386756228, -2956.733460036929, 15312.040187363647, 7566.2219603326275, -187500.02235174447, -187500.02235174447, -0.182, -0.762, -0.64, 192.0, 0.0, 0.0, 0.0, 0.0, 0.0, 0.0, 0.0, 0.0, 0.0, 1.6776147400973334E9, 0.0, 2023-02-28 12:05:40.097
208.0, 26627.007320762554, -4233.420399835158, 14484.288034950261, -2950.273805889345, 14876.963481541095, 7202.492022811416, -187500.02235174447, -187500.02235174447, -0.182, -0.762, -0.64, 192.0, 0.0, 0.0, 0.0, 0.0, 0.0, 0.0, 0.0, 0.0, 0.0, 1.6776147401005442E9, 0.0, 2023-02-28 12:05:40.100
209.0, 26616.524352613014, -4232.012239934474, 14283.859942419524, -2954.6547478025855, 14763.461323197047, 7209.398711848106, -187500.02235174447, -187500.02235174447, -0.176, -0.758, -0.638, 192.0, 250.0, 128.0, 232.0, 80.0, 236.0, 16.0, 0.0, 0.0, 0.0, 1.6776147401044457E9, 0.0, 2023-02-28 12:05:40.104
210.0, 26796.433543733783, -4224.16677763066, 15074.351736825913, -2962.2096374284793, 15182.489476500688, 7569.507666767558, -187500.02235174447, -187500.02235174447, -0.176, -0.758, -0.638, 192.0, 0.0, 0.0, 0.0, 0.0, 0.0, 0.0, 0.0, 0.0, 0.0, 1.677614740108508E9, 0.0, 2023-02-28 12:05:40.108
211.0, 26802.78143915909, -4228.435960821625, 15387.589083622586, -2960.756774038884, 15359.850568753549, 7611.037207965519, -187500.02235174447, -187500.02235174447, -0.176, -0.758, -0.638, 192.0, 0.0, 0.0, 0.0, 0.0, 0.0, 0.0, 0.0, 0.0, 0.0, 1.677614740112447E9, 0.0, 2023-02-28 12:05:40.112
212.0, 26635.523335400027, -4231.073466667351, 14627.629772142145, -2952.4866285904204, 14962.838883738386, 7253.096372258231, -187500.02235174447, -187500.02235174447, -0.176, -0.758, -0.638, 192.0, 0.0, 0.0, 0.0, 0.0, 0.0, 0.0, 0.0, 0.0, 0.0, 1.677614740117452E9, 0.0, 2023-02-28 12:05:40.117
213.0, 26555.034703616468, -4236.728458014543, 14228.517023148182, -2955.884093747627, 14741.154282230651, 7165.432830504517, -187500.02235174447, -187500.02235174447, -0.176, -0.758, -0.638, 192.0, 0.0, 0.0, 0.0, 0.0, 0.0, 0.0, 0.0, 0.0, 0.0, 1.6776147401214275E9, 0.0, 2023-02-28 12:05:40.121
214.0, 26677.70107718719, -4236.147312658705, 14923.85744140833, -2964.400108385099, 15102.98432147316, 7506.811023570422, -187500.02235174447, -187500.02235174447, -0.176, -0.758, -0.638, 192.0, 0.0, 0.0, 0.0, 0.0, 0.0, 0.0, 0.0, 0.0, 0.0, 1.6776147401244023E9, 0.0, 2023-02-28 12:05:40.124
215.0, 26722.1586969088, -4237.488417326023, 15431.219688799345, -2965.1600676965795, 15376.256749183745, 7643.916624059275, -187500.02235174447, -187500.02235174447, -0.176, -0.758, -0.638, 192.0, 0.0, 0.0, 0.0, 0.0, 0.0, 0.0, 0.0, 0.0, 0.0, 1.6776147401284633E9, 0.0, 2023-02-28 12:05:40.128
216.0, 26579.68867775067, -4241.332917372336, 14786.818896152843, -2958.052212959792, 15039.773588153552, 7311.657942731135, -187500.02235174447, -187500.02235174447, -0.176, -0.758, -0.638, 192.0, 0.0, 0.0, 0.0, 0.0, 0.0, 0.0, 0.0, 0.0, 0.0, 1.6776147401324658E9, 0.0, 2023-02-28 12:05:40.132
217.0, 26495.109676731787, -4241.8246557503535, 14213.340188663029, -2958.5215995933536, 14729.039636735874, 7136.777894112814, -187500.02235174447, -187500.02235174447, -0.176, -0.758, -0.638, 192.0, 0.0, 0.0, 0.0, 0.0, 0.0, 0.0, 0.0, 0.0, 0.0, 1.6776147401364412E9, 0.0, 2023-02-28 12:05:40.136
218.0, 26593.099724423853, -4245.22212090756, 14773.92193960213, -2969.6080648431857, 15014.471413430145, 7434.27961281295, -187500.02235174447, -187500.02235174447, -0.176, -0.758, -0.638, 192.0, 0.0, 0.0, 0.0, 0.0, 0.0, 0.0, 0.0, 0.0, 0.0, 1.6776147401404252E9, 0.0, 2023-02-28 12:05:40.140
219.0, 26683.199606323196, -4246.093838941317, 15442.999058127292, -2972.3126259222777, 15371.4287723814, 7653.997260808619, -187500.02235174447, -187500.02235174447, -0.176, -0.762, -0.64, 192.0, 250.0, 128.0, 232.0, 48.0, 236.0, 0.0, 0.0, 0.0, 0.0, 1.6776147401453884E9, 0.0, 2023-02-28 12:05:40.145
220.0, 26583.332012096886, -4243.970423218063, 14954.166406889726, -2963.4836868624316, 15124.821975805997, 7372.231170205018, -187500.02235174447, -187500.02235174447, -0.176, -0.762, -0.64, 192.0, 0.0, 0.0, 0.0, 0.0, 0.0, 0.0, 0.0, 0.0, 0.0, 1.6776147401494524E9, 0.0, 2023-02-28 12:05:40.149
221.0, 26466.65590604018, -4243.165760417672, 14242.509215177204, -2960.3544426386884, 14746.026962521908, 7124.327972451208, -187500.02235174447, -187500.02235174447, -0.176, -0.762, -0.64, 192.0, 0.0, 0.0, 0.0, 0.0, 0.0, 0.0, 0.0, 0.0, 0.0, 1.6776147401524212E9, 0.0, 2023-02-28 12:05:40.152
222.0, 26545.35639826732, -4245.780914518942, 14624.701693618501, -2969.6080648431857, 14940.107159627338, 7364.832742790311, -187500.02235174447, -187500.02235174447, -0.176, -0.762, -0.64, 192.0, 0.0, 0.0, 0.0, 0.0, 0.0, 0.0, 0.0, 0.0, 0.0, 1.677614740156456E9, 0.0, 2023-02-28 12:05:40.156
223.0, 26674.974164363644, -4242.964594717574, 15405.76105186475, -2974.4583933899876, 15353.167397161413, 7660.166342278283, -187500.02235174447, -187500.02235174447, -0.176, -0.762, -0.64, 192.0, 0.0, 0.0, 0.0, 0.0, 0.0, 0.0, 0.0, 0.0, 0.0, 1.6776147401604743E9, 0.0, 2023-02-28 12:05:40.160
224.0, 26588.428209832695, -4242.741077273021, 15107.074690708483, -2966.188247941524, 15204.528296533621, 7450.082296142852, -187500.02235174447, -187500.02235174447, -0.176, -0.762, -0.64, 192.0, 0.0, 0.0, 0.0, 0.0, 0.0, 0.0, 0.0, 0.0, 0.0, 1.677614740164462E9, 0.0, 2023-02-28 12:05:40.164
225.0, 26470.254536897486, -4239.768295260465, 14303.752994984747, -2960.9132362500713, 14783.01909959544, 7140.465931947939, -187500.02235174447, -187500.02235174447, -0.176, -0.762, -0.64, 192.0, 0.0, 0.0, 0.0, 0.0, 0.0, 0.0, 0.0, 0.0, 0.0, 1.6776147401684763E9, 0.0, 2023-02-28 12:05:40.168
226.0, 26544.082348833366, -4235.141484158216, 14486.590264629158, -2966.6799863195406, 14875.868246062786, 7307.098186862253, -187500.02235174447, -187500.02235174447, -0.176, -0.762, -0.64, 192.0, 0.0, 0.0, 0.0, 0.0, 0.0, 0.0, 0.0, 0.0, 0.0, 1.6776147401734495E9, 0.0, 2023-02-28 12:05:40.173
227.0, 26687.826417425447, -4234.202710891093, 15321.249106079234, -2972.44673638901, 15318.3657310445, 7644.743638604122, -187500.02235174447, -187500.02235174447, -0.176, -0.762, -0.64, 192.0, 0.0, 0.0, 0.0, 0.0, 0.0, 0.0, 0.0, 0.0, 0.0, 1.677614740177421E9, 0.0, 2023-02-28 12:05:40.177
228.0, 26633.399919676773, -4236.795513247909, 15237.832395772028, -2964.7800880408395, 15280.4571724483, 7516.064645774919, -187500.02235174447, -187500.02235174447, -0.176, -0.762, -0.64, 192.0, 0.0, 0.0, 0.0, 0.0, 0.0, 0.0, 0.0, 0.0, 0.0, 1.6776147401805415E9, 0.0, 2023-02-28 12:05:40.180
229.0, 26486.884234772235, -4237.6001760483, 14401.296007787707, -2957.135791437124, 14839.345495622814, 7172.205409074475, -187500.02235174447, -187500.02235174447, -0.176, -0.758, -0.642, 192.0, 250.0, 128.0, 232.0, 80.0, 235.0, 240.0, 0.0, 0.0, 0.0, 1.67761474018446E9, 0.0, 2023-02-28 12:05:40.184
230.0, 26486.37014464976, -4238.6507080377, 14371.903463828978, -2963.3272246512443, 14813.97626566604, 7253.72222110298, -187500.02235174447, -187500.02235174447, -0.176, -0.758, -0.642, 192.0, 0.0, 0.0, 0.0, 0.0, 0.0, 0.0, 0.0, 0.0, 0.0, 1.6776147401884675E9, 0.0, 2023-02-28 12:05:40.188
231.0, 26634.94219004419, -4237.644879537211, 15204.595351766988, -2971.507963121887, 15247.309535421078, 7617.295696413004, -187500.02235174447, -187500.02235174447, -0.176, -0.758, -0.642, 192.0, 0.0, 0.0, 0.0, 0.0, 0.0, 0.0, 0.0, 0.0, 0.0, 1.6776147401924334E9, 0.0, 2023-02-28 12:05:40.192
232.0, 26662.345428746397, -4234.180359146638, 15341.99152493376, -2964.7353845519287, 15328.89340268295, 7585.600922775379, -187500.02235174447, -187500.02235174447, -0.176, -0.758, -0.642, 192.0, 0.0, 0.0, 0.0, 0.0, 0.0, 0.0, 0.0, 0.0, 0.0, 1.6776147401964543E9, 0.0, 2023-02-28 12:05:40.196
233.0, 26529.799584126424, -4227.251318365493, 14524.744692414368, -2953.6712710465517, 14902.422118475692, 7226.184871934041, -187500.02235174447, -187500.02235174447, -0.176, -0.758, -0.642, 192.0, 0.0, 0.0, 0.0, 0.0, 0.0, 0.0, 0.0, 0.0, 0.0, 1.677614740202515E9, 0.0, 2023-02-28 12:05:40.202
234.0, 26502.44104891313, -4226.714876498566, 14282.094154607554, -2957.113439692669, 14768.937500588598, 7212.192679905019, -187500.02235174447, -187500.02235174447, -0.176, -0.758, -0.642, 192.0, 0.0, 0.0, 0.0, 0.0, 0.0, 0.0, 0.0, 0.0, 0.0, 1.677614740205531E9, 0.0, 2023-02-28 12:05:40.205
235.0, 26635.813908077947, -4226.69252475411, 15055.308050549991, -2965.1600676965795, 15178.041479354082, 7568.412431289248, -187500.02235174447, -187500.02235174447, -0.176, -0.758, -0.642, 192.0, 0.0, 0.0, 0.0, 0.0, 0.0, 0.0, 0.0, 0.0, 0.0, 1.6776147402095673E9, 0.0, 2023-02-28 12:05:40.209
236.0, 26645.425158193728, -4230.782893989432, 15407.951522821371, -2963.304872906789, 15371.205254936845, 7628.5609756184795, -187500.02235174447, -187500.02235174447, -0.176, -0.758, -0.642, 192.0, 0.0, 0.0, 0.0, 0.0, 0.0, 0.0, 0.0, 0.0, 0.0, 1.6776147402125072E9, 0.0, 2023-02-28 12:05:40.212
237.0, 26520.367147966284, -4223.764446230465, 14664.554853982312, -2952.6430908016077, 14985.615311338344, 7280.410203982617, -187500.02235174447, -187500.02235174447, -0.176, -0.758, -0.642, 192.0, 0.0, 0.0, 0.0, 0.0, 0.0, 0.0, 0.0, 0.0, 0.0, 1.6776147402165394E9, 0.0, 2023-02-28 12:05:40.216
238.0, 26438.872687682237, -4227.966574188063, 14225.81246206909, -2954.3865268691216, 14751.793712591376, 7172.920664897045, -187500.02235174447, -187500.02235174447, -0.176, -0.758, -0.642, 192.0, 0.0, 0.0, 0.0, 0.0, 0.0, 0.0, 0.0, 0.0, 0.0, 1.6776147402204845E9, 0.0, 2023-02-28 12:05:40.220
239.0, 26524.368110223786, -4234.1356556577275, 14893.66023464921, -2964.310701407278, 15098.603379559921, 7501.379549667782, -187500.02235174447, -187500.02235174447, -0.176, -0.758, -0.642, 192.0, 0.0, 0.0, 0.0, 0.0, 0.0, 0.0, 0.0, 0.0, 0.0, 1.677614740224514E9, 0.0, 2023-02-28 12:05:40.224
240.0, 26585.857759220336, -4230.425266078147, 15436.472348746342, -2963.684852562529, 15390.159534234946, 7659.764010878088, -187500.02235174447, -187500.02235174447, -0.176, -0.752, -0.642, 192.0, 250.0, 128.0, 232.0, 128.0, 235.0, 240.0, 0.0, 0.0, 0.0, 1.6776147402295835E9, 0.0, 2023-02-28 12:05:40.229
241.0, 26453.311914600363, -4231.296984111904, 14817.060806400874, -2954.6770995470406, 15071.289547835535, 7334.791998242378, -187500.02235174447, -187500.02235174447, -0.176, -0.752, -0.642, 192.0, 0.0, 0.0, 0.0, 0.0, 0.0, 0.0, 0.0, 0.0, 0.0, 1.6776147402335515E9, 0.0, 2023-02-28 12:05:40.233
242.0, 26331.494907318942, -4231.431094578636, 14212.267304929175, -2953.961843724471, 14748.463302667536, 7142.321126737729, -187500.02235174447, -187500.02235174447, -0.176, -0.752, -0.642, 192.0, 0.0, 0.0, 0.0, 0.0, 0.0, 0.0, 0.0, 0.0, 0.0, 1.677614740236472E9, 0.0, 2023-02-28 12:05:40.236
243.0, 26390.347050469765, -4235.499112069501, 14736.527471128402, -2964.1318874516355, 15017.77947160953, 7429.1610633326845, -187500.02235174447, -187500.02235174447, -0.176, -0.752, -0.642, 192.0, 0.0, 0.0, 0.0, 0.0, 0.0, 0.0, 0.0, 0.0, 0.0, 1.6776147402405028E9, 0.0, 2023-02-28 12:05:40.240
244.0, 26483.1514934482, -4230.045286422406, 15429.72212192084, -2965.54004735232, 15389.667795856929, 7666.84951387042, -187500.02235174447, -187500.02235174447, -0.176, -0.752, -0.642, 192.0, 0.0, 0.0, 0.0, 0.0, 0.0, 0.0, 0.0, 0.0, 0.0, 1.6776147402445304E9, 0.0, 2023-02-28 12:05:40.244
245.0, 26362.20620420053, -4229.844120722309, 14973.925348988218, -2957.2922536483115, 15157.097894799459, 7396.952199572587, -187500.02235174447, -187500.02235174447, -0.176, -0.752, -0.642, 192.0, 0.0, 0.0, 0.0, 0.0, 0.0, 0.0, 0.0, 0.0, 0.0, 1.6776147402485857E9, 0.0, 2023-02-28 12:05:40.248
246.0, 26219.959702486958, -4233.241585879515, 14241.72690412127, -2955.146486180602, 14762.768419118933, 7132.799283599768, -187500.02235174447, -187500.02235174447, -0.176, -0.752, -0.642, 192.0, 0.0, 0.0, 0.0, 0.0, 0.0, 0.0, 0.0, 0.0, 0.0, 1.6776147402525842E9, 0.0, 2023-02-28 12:05:40.252
247.0, 26260.10343552869, -4237.846045237308, 14586.524914088835, -2965.830620030239, 14937.044970636962, 7356.160265941652, -187500.02235174447, -187500.02235174447, -0.176, -0.752, -0.642, 192.0, 0.0, 0.0, 0.0, 0.0, 0.0, 0.0, 0.0, 0.0, 0.0, 1.6776147402565663E9, 0.0, 2023-02-28 12:05:40.256
248.0, 26353.109044207224, -4237.622527792755, 15383.051679498158, -2970.792707299317, 15360.94580423186, 7659.451086455713, -187500.02235174447, -187500.02235174447, -0.176, -0.752, -0.642, 192.0, 0.0, 0.0, 0.0, 0.0, 0.0, 0.0, 0.0, 0.0, 0.0, 1.6776147402615545E9, 0.0, 2023-02-28 12:05:40.261
249.0, 26255.990714548912, -4237.756638259487, 15125.514879884111, -2962.2096374284793, 15235.217241670758, 7460.811133481399, -187500.02235174447, -187500.02235174447, -0.176, -0.752, -0.642, 192.0, 0.0, 0.0, 0.0, 0.0, 0.0, 0.0, 0.0, 0.0, 0.0, 1.6776147402645807E9, 0.0, 2023-02-28 12:05:40.264
250.0, 26080.59657580812, -4240.327088871848, 14311.531402055194, -2957.091087948214, 14803.940332405607, 7143.148141282576, -187500.02235174447, -187500.02235174447, -0.18, -0.752, -0.636, 192.0, 250.0, 96.0, 232.0, 128.0, 236.0, 32.0, 0.0, 0.0, 0.0, 1.677614740268544E9, 0.0, 2023-02-28 12:05:40.268
251.0, 26103.2612446858, -4239.522426071457, 14451.989764212343, -2964.377756640644, 14868.805094814908, 7292.211925055019, -187500.02235174447, -187500.02235174447, -0.18, -0.752, -0.636, 192.0, 0.0, 0.0, 0.0, 0.0, 0.0, 0.0, 0.0, 0.0, 0.0, 1.677614740272515E9, 0.0, 2023-02-28 12:05:40.272
252.0, 26228.520420613342, -4239.723591771554, 15291.990672587237, -2972.6031986001967, 15312.151946085925, 7634.998278021608, -187500.02235174447, -187500.02235174447, -0.18, -0.752, -0.636, 192.0, 0.0, 0.0, 0.0, 0.0, 0.0, 0.0, 0.0, 0.0, 0.0, 1.6776147402765257E9, 0.0, 2023-02-28 12:05:40.276
253.0, 26189.628385261105, -4236.795513247909, 15252.718657579264, -2966.3223584082557, 15298.919713368383, 7525.564137168424, -187500.02235174447, -187500.02235174447, -0.18, -0.752, -0.636, 192.0, 0.0, 0.0, 0.0, 0.0, 0.0, 0.0, 0.0, 0.0, 0.0, 1.6776147402805643E9, 0.0, 2023-02-28 12:05:40.280
254.0, 26004.19831325988, -4237.622527792755, 14413.790632938222, -2959.2368554159234, 14857.98685049854, 7174.708804453469, -187500.02235174447, -187500.02235174447, -0.18, -0.752, -0.636, 192.0, 0.0, 0.0, 0.0, 0.0, 0.0, 0.0, 0.0, 0.0, 0.0, 1.6776147402856252E9, 0.0, 2023-02-28 12:05:40.285
255.0, 25987.76978108523, -4237.778990003942, 14342.533271614704, -2963.5283903513423, 14812.813974954364, 7237.964241261989, -187500.02235174447, -187500.02235174447, -0.18, -0.752, -0.636, 192.0, 0.0, 0.0, 0.0, 0.0, 0.0, 0.0, 0.0, 0.0, 0.0, 1.6776147402885687E9, 0.0, 2023-02-28 12:05:40.288
0.0, 26101.65191908502, -4238.427190593146, 15168.474932727211, -2970.7480038104063, 15246.080189476037, 7602.297675883494, -187500.02235174447, -187500.02235174447, -0.18, -0.752, -0.636, 192.0, 0.0, 0.0, 0.0, 0.0, 0.0, 0.0, 0.0, 0.0, 0.0, 1.67761474029164E9, 0.0, 2023-02-28 12:05:40.291
1.0, 26075.522729816763, -4239.4777225825455, 15352.809769250129, -2966.2329514304342, 15348.697048270351, 7592.127632156329, -187500.02235174447, -187500.02235174447, -0.18, -0.752, -0.636, 192.0, 0.0, 0.0, 0.0, 0.0, 0.0, 0.0, 0.0, 0.0, 0.0, 1.6776147402965984E9, 0.0, 2023-02-28 12:05:40.296
2.0, 25925.83309719957, -4232.995716690507, 14547.252899080862, -2955.839390258717, 14926.673761209699, 7233.248023181918, -187500.02235174447, -187500.02235174447, -0.18, -0.752, -0.636, 192.0, 0.0, 0.0, 0.0, 0.0, 0.0, 0.0, 0.0, 0.0, 0.0, 1.6776147403005855E9, 0.0, 2023-02-28 12:05:40.300
3.0, 25883.521244945678, -4234.046248679906, 14265.218587543797, -2959.415669371566, 14776.268872769937, 7199.005150676388, -187500.02235174447, -187500.02235174447, -0.18, -0.752, -0.636, 192.0, 0.0, 0.0, 0.0, 0.0, 0.0, 0.0, 0.0, 0.0, 0.0, 1.6776147403046825E9, 0.0, 2023-02-28 12:05:40.304
4.0, 25991.14489449798, -4236.348478358803, 15024.283829246026, -2968.4457741315096, 15169.972499605716, 7553.347355526371, -187500.02235174447, -187500.02235174447, -0.18, -0.754, -0.634, 192.0, 250.0, 96.0, 232.0, 112.0, 236.0, 48.0, 0.0, 0.0, 0.0, 1.677614740308626E9, 0.0, 2023-02-28 12:05:40.308
5.0, 26001.180827758413, -4235.74498125851, 15418.322732248633, -2965.3835851411327, 15380.883560285994, 7638.015763523074, -187500.02235174447, -187500.02235174447, -0.18, -0.754, -0.634, 192.0, 0.0, 0.0, 0.0, 0.0, 0.0, 0.0, 0.0, 0.0, 0.0, 1.6776147403126285E9, 0.0, 2023-02-28 12:05:40.312
6.0, 25868.36676220498, -4226.469007309557, 14697.702491009533, -2954.7441547804065, 15007.609427882366, 7290.0438058428535, -187500.02235174447, -187500.02235174447, -0.18, -0.754, -0.634, 192.0, 0.0, 0.0, 0.0, 0.0, 0.0, 0.0, 0.0, 0.0, 0.0, 1.6776147403166568E9, 0.0, 2023-02-28 12:05:40.316
7.0, 25761.413664986332, -4231.878129467742, 14222.48205214525, -2957.0687362037584, 14750.34084920178, 7165.142257826598, -187500.02235174447, -187500.02235174447, -0.18, -0.754, -0.634, 192.0, 0.0, 0.0, 0.0, 0.0, 0.0, 0.0, 0.0, 0.0, 0.0, 1.6776147403196268E9, 0.0, 2023-02-28 12:05:40.319
8.0, 25847.222011950256, -4234.627394035744, 14862.747772067522, -2966.63528283063, 15083.627710774865, 7488.102613461329, -187500.02235174447, -187500.02235174447, -0.18, -0.754, -0.634, 192.0, 0.0, 0.0, 0.0, 0.0, 0.0, 0.0, 0.0, 0.0, 0.0, 1.677614740323662E9, 0.0, 2023-02-28 12:05:40.323
9.0, 25886.18110253586, -4235.186187647127, 15441.836767415616, -2966.903503764094, 15392.797040080672, 7659.674603900266, -187500.02235174447, -187500.02235174447, -0.18, -0.754, -0.634, 192.0, 0.0, 0.0, 0.0, 0.0, 0.0, 0.0, 0.0, 0.0, 0.0, 1.677614740328623E9, 0.0, 2023-02-28 12:05:40.328
10.0, 25758.463234718234, -4227.005449176485, 14853.024763229461, -2955.2582449028787, 15091.026138189573, 7347.443085604083, -187500.02235174447, -187500.02235174447, -0.18, -0.754, -0.634, 192.0, 0.0, 0.0, 0.0, 0.0, 0.0, 0.0, 0.0, 0.0, 0.0, 1.6776147403326433E9, 0.0, 2023-02-28 12:05:40.332
11.0, 25634.858087880384, -4228.771236988454, 14216.625895097959, -2953.7830297688283, 14752.888948069687, 7141.404705215062, -187500.02235174447, -187500.02235174447, -0.18, -0.754, -0.634, 192.0, 0.0, 0.0, 0.0, 0.0, 0.0, 0.0, 0.0, 0.0, 0.0, 1.677614740336665E9, 0.0, 2023-02-28 12:05:40.336
12.0, 25682.93669020375, -4236.415533592169, 14706.777299258389, -2963.7966112848057, 15001.10507024587, 7419.773330661456, -187500.02235174447, -187500.02235174447, -0.18, -0.754, -0.634, 192.0, 0.0, 0.0, 0.0, 0.0, 0.0, 0.0, 0.0, 0.0, 0.0, 1.6776147403406315E9, 0.0, 2023-02-28 12:05:40.340
13.0, 25763.42532198731, -4236.616699292266, 15425.251773029779, -2967.01526248637, 15381.71057483084, 7674.270293029582, -187500.02235174447, -187500.02235174447, -0.18, -0.754, -0.634, 192.0, 0.0, 0.0, 0.0, 0.0, 0.0, 0.0, 0.0, 0.0, 0.0, 1.6776147403466437E9, 0.0, 2023-02-28 12:05:40.346
14.0, 25662.35073356041, -4230.425266078147, 15010.4928029171, -2957.3146053927667, 15171.827694395506, 7421.18149056214, -187500.02235174447, -187500.02235174447, -0.178, -0.754, -0.632, 192.0, 250.0, 112.0, 232.0, 112.0, 236.0, 64.0, 0.0, 0.0, 0.0, 1.6776147403496811E9, 0.0, 2023-02-28 12:05:40.349
15.0, 25517.511429490023, -4229.307678855381, 14259.317727007596, -2952.978366968437, 14773.899587857675, 7147.216158773442, -187500.02235174447, -187500.02235174447, -0.178, -0.754, -0.632, 192.0, 0.0, 0.0, 0.0, 0.0, 0.0, 0.0, 0.0, 0.0, 0.0, 1.6776147403536968E9, 0.0, 2023-02-28 12:05:40.353
16.0, 25568.853386503863, -4229.419437577658, 14561.513312043347, -2961.3602711391773, 14927.880755410286, 7358.149571198174, -187500.02235174447, -187500.02235174447, -0.178, -0.754, -0.632, 192.0, 0.0, 0.0, 0.0, 0.0, 0.0, 0.0, 0.0, 0.0, 0.0, 1.677614740356638E9, 0.0, 2023-02-28 12:05:40.356
17.0, 25689.373992606877, -4228.12303639925, 15372.99339449327, -2967.1046694641914, 15355.380219862489, 7670.47049647218, -187500.02235174447, -187500.02235174447, -0.178, -0.754, -0.632, 192.0, 0.0, 0.0, 0.0, 0.0, 0.0, 0.0, 0.0, 0.0, 0.0, 1.6776147403606339E9, 0.0, 2023-02-28 12:05:40.360
18.0, 25632.041768079016, -4225.239661364515, 15162.037630324083, -2959.4827246049317, 15253.523320379654, 7487.141488449752, -187500.02235174447, -187500.02235174447, -0.178, -0.754, -0.632, 192.0, 0.0, 0.0, 0.0, 0.0, 0.0, 0.0, 0.0, 0.0, 0.0, 1.6776147403646386E9, 0.0, 2023-02-28 12:05:40.364
19.0, 25478.485283671056, -4226.69252475411, 14342.086236725598, -2952.956015223982, 14822.805204725886, 7158.3249757677295, -187500.02235174447, -187500.02235174447, -0.178, -0.754, -0.632, 192.0, 0.0, 0.0, 0.0, 0.0, 0.0, 0.0, 0.0, 0.0, 0.0, 1.6776147403687296E9, 0.0, 2023-02-28 12:05:40.368
20.0, 25508.61543519681, -4227.0948561543055, 14439.47278731737, -2959.5944833272083, 14868.626280859267, 7288.032148841876, -187500.02235174447, -187500.02235174447, -0.178, -0.754, -0.632, 192.0, 0.0, 0.0, 0.0, 0.0, 0.0, 0.0, 0.0, 0.0, 0.0, 1.6776147403726552E9, 0.0, 2023-02-28 12:05:40.372
21.0, 25644.156413573794, -4229.777065488943, 15280.300710237112, -2968.6916433205183, 15311.593152474541, 7634.394780921314, -187500.02235174447, -187500.02235174447, -0.178, -0.754, -0.632, 192.0, 0.0, 0.0, 0.0, 0.0, 0.0, 0.0, 0.0, 0.0, 0.0, 1.6776147403758209E9, 0.0, 2023-02-28 12:05:40.375
22.0, 25612.41693644726, -4229.508844555479, 15289.062594063593, -2963.886018262627, 15321.025588634682, 7544.071381577419, -187500.02235174447, -187500.02235174447, -0.178, -0.754, -0.632, 192.0, 0.0, 0.0, 0.0, 0.0, 0.0, 0.0, 0.0, 0.0, 0.0, 1.6776147403796968E9, 0.0, 2023-02-28 12:05:40.379
23.0, 25469.94691728913, -4228.190091632616, 14456.661278803502, -2956.3981838700993, 14885.479496178568, 7188.835106949224, -187500.02235174447, -187500.02235174447, -0.178, -0.754, -0.632, 192.0, 0.0, 0.0, 0.0, 0.0, 0.0, 0.0, 0.0, 0.0, 0.0, 1.6776147403847392E9, 0.0, 2023-02-28 12:05:40.384
24.0, 25474.819597580386, -4226.178434631638, 14341.080408225109, -2960.4214978720547, 14820.413568069169, 7233.024505737366, -187500.02235174447, -187500.02235174447, -0.18, -0.754, -0.64, 192.0, 250.0, 96.0, 232.0, 112.0, 236.0, 0.0, 0.0, 0.0, 0.0, 1.6776147403886445E9, 0.0, 2023-02-28 12:05:40.388
25.0, 25614.897980081798, -4226.424303820647, 15154.66155465383, -2967.864628775672, 15249.008267999681, 7594.8098414909655, -187500.02235174447, -187500.02235174447, -0.18, -0.754, -0.64, 192.0, 0.0, 0.0, 0.0, 0.0, 0.0, 0.0, 0.0, 0.0, 0.0, 1.6776147403926778E9, 0.0, 2023-02-28 12:05:40.392
26.0, 25623.190477274715, -4225.306716597881, 15380.078897485602, -2962.030823472837, 15377.799019551161, 7599.369597359848, -187500.02235174447, -187500.02235174447, -0.18, -0.754, -0.64, 192.0, 0.0, 0.0, 0.0, 0.0, 0.0, 0.0, 0.0, 0.0, 0.0, 1.6776147403967257E9, 0.0, 2023-02-28 12:05:40.396
27.0, 25485.86135934131, -4222.848024707798, 14588.357757134172, -2952.1290006791355, 14964.179988405704, 7240.579395363259, -187500.02235174447, -187500.02235174447, -0.18, -0.754, -0.64, 192.0, 0.0, 0.0, 0.0, 0.0, 0.0, 0.0, 0.0, 0.0, 0.0, 1.6776147403997707E9, 0.0, 2023-02-28 12:05:40.399
28.0, 25445.203536177105, -4227.005449176485, 14266.425581744383, -2955.0570792027806, 14784.740183918499, 7190.265618594363, -187500.02235174447, -187500.02235174447, -0.18, -0.754, -0.64, 192.0, 0.0, 0.0, 0.0, 0.0, 0.0, 0.0, 0.0, 0.0, 0.0, 1.677614740403673E9, 0.0, 2023-02-28 12:05:40.403
29.0, 25589.707564080665, -4226.491359054013, 15006.4918406596, -2963.3272246512443, 15170.061906583538, 7542.640869932279, -187500.02235174447, -187500.02235174447, -0.18, -0.754, -0.64, 192.0, 0.0, 0.0, 0.0, 0.0, 0.0, 0.0, 0.0, 0.0, 0.0, 1.6776147404076793E9, 0.0, 2023-02-28 12:05:40.407
30.0, 25648.425596764755, -4223.943260186107, 15438.1934330694, -2961.3602711391773, 15407.616246654541, 7644.944804304219, -187500.02235174447, -187500.02235174447, -0.18, -0.754, -0.64, 192.0, 0.0, 0.0, 0.0, 0.0, 0.0, 0.0, 0.0, 0.0, 0.0, 1.6776147404127097E9, 0.0, 2023-02-28 12:05:40.412
31.0, 25520.126583591293, -4223.205652619083, 14741.780131075398, -2951.7490210233955, 15047.149663823804, 7303.790128682867, -187500.02235174447, -187500.02235174447, -0.18, -0.754, -0.64, 192.0, 0.0, 0.0, 0.0, 0.0, 0.0, 0.0, 0.0, 0.0, 0.0, 1.6776147404167812E9, 0.0, 2023-02-28 12:05:40.416
32.0, 25456.781739804956, -4226.334896842825, 14231.825081327568, -2952.307814634778, 14773.229035524017, 7160.806019402268, -187500.02235174447, -187500.02235174447, -0.18, -0.754, -0.64, 192.0, 0.0, 0.0, 0.0, 0.0, 0.0, 0.0, 0.0, 0.0, 0.0, 1.6776147404207168E9, 0.0, 2023-02-28 12:05:40.420
33.0, 25581.16919769874, -4232.682792268132, 14847.816806771376, -2963.8636665181716, 15089.550923055522, 7472.188171409151, -187500.02235174447, -187500.02235174447, -0.18, -0.754, -0.64, 192.0, 0.0, 0.0, 0.0, 0.0, 0.0, 0.0, 0.0, 0.0, 0.0, 1.6776147404246972E9, 0.0, 2023-02-28 12:05:40.424
34.0, 25663.244803338624, -4236.080257425339, 15459.002907157292, -2966.4564688749874, 15414.254714757768, 7658.579368421957, -187500.02235174447, -187500.02235174447, -0.18, -0.756, -0.644, 192.0, 250.0, 96.0, 232.0, 96.0, 235.0, 224.0, 0.0, 0.0, 0.0, 1.6776147404277024E9, 0.0, 2023-02-28 12:05:40.427
35.0, 25558.16925265423, -4235.521463813957, 14904.836106876865, -2956.599349570197, 15128.107682240927, 7359.065992720842, -187500.02235174447, -187500.02235174447, -0.18, -0.756, -0.644, 192.0, 0.0, 0.0, 0.0, 0.0, 0.0, 0.0, 0.0, 0.0, 0.0, 1.6776147404338202E9, 0.0, 2023-02-28 12:05:40.433
36.0, 25476.719495859088, -4235.566167302867, 14242.710380877303, -2953.6712710465517, 14775.441858225091, 7141.3600017261515, -187500.02235174447, -187500.02235174447, -0.18, -0.756, -0.644, 192.0, 0.0, 0.0, 0.0, 0.0, 0.0, 0.0, 0.0, 0.0, 0.0, 1.6776147404367218E9, 0.0, 2023-02-28 12:05:40.436
37.0, 25608.281863723027, -4233.442751579613, 14693.679177007578, -2961.024994972348, 15010.425747683734, 7405.334103743327, -187500.02235174447, -187500.02235174447, -0.18, -0.756, -0.644, 192.0, 0.0, 0.0, 0.0, 0.0, 0.0, 0.0, 0.0, 0.0, 0.0, 1.6776147404407628E9, 0.0, 2023-02-28 12:05:40.440
38.0, 25741.76648161012, -4235.007373691485, 15432.605496955573, -2965.271826418856, 15403.771746608229, 7665.955444092208, -187500.02235174447, -187500.02235174447, -0.18, -0.756, -0.644, 192.0, 0.0, 0.0, 0.0, 0.0, 0.0, 0.0, 0.0, 0.0, 0.0, 1.677614740444718E9, 0.0, 2023-02-28 12:05:40.444
39.0, 25644.245820551616, -4237.242548137016, 15058.772570940564, -2957.5604745817755, 15209.378625080422, 7426.322391786861, -187500.02235174447, -187500.02235174447, -0.18, -0.756, -0.644, 192.0, 0.0, 0.0, 0.0, 0.0, 0.0, 0.0, 0.0, 0.0, 0.0, 1.6776147404487517E9, 0.0, 2023-02-28 12:05:40.448
40.0, 25527.547362750454, -4238.136617915227, 14286.609206987527, -2953.2912913908117, 14800.83343992632, 7141.739981381891, -187500.02235174447, -187500.02235174447, -0.18, -0.756, -0.644, 192.0, 0.0, 0.0, 0.0, 0.0, 0.0, 0.0, 0.0, 0.0, 0.0, 1.6776147404527884E9, 0.0, 2023-02-28 12:05:40.452
41.0, 25599.63173861882, -4238.628356293244, 14545.241242079885, -2961.315567650267, 14931.233517078581, 7336.3566203542505, -187500.02235174447, -187500.02235174447, -0.18, -0.756, -0.644, 192.0, 0.0, 0.0, 0.0, 0.0, 0.0, 0.0, 0.0, 0.0, 0.0, 1.6776147404567182E9, 0.0, 2023-02-28 12:05:40.456
42.0, 25760.81016788604, -4241.93641447263, 15361.281080398689, -2967.909332264582, 15359.247071653257, 7656.321842231971, -187500.02235174447, -187500.02235174447, -0.18, -0.756, -0.644, 192.0, 0.0, 0.0, 0.0, 0.0, 0.0, 0.0, 0.0, 0.0, 0.0, 1.6776147404598083E9, 0.0, 2023-02-28 12:05:40.459
43.0, 25790.38152580041, -4242.9422429731185, 15192.905389416861, -2961.91906475056, 15273.25991073369, 7491.72359606309, -187500.02235174447, -187500.02235174447, -0.18, -0.756, -0.644, 192.0, 0.0, 0.0, 0.0, 0.0, 0.0, 0.0, 0.0, 0.0, 0.0, 1.6776147404637995E9, 0.0, 2023-02-28 12:05:40.463
44.0, 25714.095021974448, -4246.630280808244, 14364.505036414272, -2955.1688379250572, 14838.630239800244, 7160.962481613456, -187500.02235174447, -187500.02235174447, -0.18, -0.758, -0.642, 192.0, 250.0, 96.0, 232.0, 80.0, 235.0, 240.0, 0.0, 0.0, 0.0, 1.6776147404688127E9, 0.0, 2023-02-28 12:05:40.468
45.0, 25678.60045177942, -4247.9937372200175, 14416.674007972957, -2961.717899050462, 14860.5573011109, 7274.688157402058, -187500.02235174447, -187500.02235174447, -0.18, -0.758, -0.642, 192.0, 0.0, 0.0, 0.0, 0.0, 0.0, 0.0, 0.0, 0.0, 0.0, 1.6776147404727628E9, 0.0, 2023-02-28 12:05:40.472
46.0, 25801.4903427947, -4244.640975551722, 15252.383381412434, -2969.0045677428925, 15300.283169780156, 7622.727170315644, -187500.02235174447, -187500.02235174447, -0.18, -0.758, -0.642, 192.0, 0.0, 0.0, 0.0, 0.0, 0.0, 0.0, 0.0, 0.0, 0.0, 1.6776147404767485E9, 0.0, 2023-02-28 12:05:40.476
47.0, 25845.344465416012, -4247.658461053188, 15306.27343729418, -2965.4953438634093, 15332.916716684906, 7546.083038578397, -187500.02235174447, -187500.02235174447, -0.18, -0.758, -0.642, 192.0, 0.0, 0.0, 0.0, 0.0, 0.0, 0.0, 0.0, 0.0, 0.0, 1.6776147404807715E9, 0.0, 2023-02-28 12:05:40.480
48.0, 25715.257312686124, -4247.256129652993, 14480.823514559688, -2958.119268193158, 14896.498906195035, 7190.533839527827, -187500.02235174447, -187500.02235174447, -0.18, -0.758, -0.642, 192.0, 0.0, 0.0, 0.0, 0.0, 0.0, 0.0, 0.0, 0.0, 0.0, 1.6776147404837687E9, 0.0, 2023-02-28 12:05:40.483
49.0, 25693.889044986852, -4242.092876683817, 14319.510974825738, -2961.695547306007, 14805.63906498421, 7212.572659560759, -187500.02235174447, -187500.02235174447, -0.18, -0.758, -0.642, 192.0, 0.0, 0.0, 0.0, 0.0, 0.0, 0.0, 0.0, 0.0, 0.0, 1.6776147404877706E9, 0.0, 2023-02-28 12:05:40.487
50.0, 25888.796256637128, -4238.851873737797, 15117.915286769306, -2970.3009689213004, 15224.019017698649, 7569.194742345184, -187500.02235174447, -187500.02235174447, -0.18, -0.758, -0.642, 192.0, 0.0, 0.0, 0.0, 0.0, 0.0, 0.0, 0.0, 0.0, 0.0, 1.6776147404917717E9, 0.0, 2023-02-28 12:05:40.491
51.0, 25970.067199476624, -4232.951013201597, 15388.773726078716, -2965.6518060745966, 15373.239263682279, 7597.112071169862, -187500.02235174447, -187500.02235174447, -0.18, -0.758, -0.642, 192.0, 0.0, 0.0, 0.0, 0.0, 0.0, 0.0, 0.0, 0.0, 0.0, 1.6776147404967666E9, 0.0, 2023-02-28 12:05:40.496
52.0, 25882.87304435647, -4229.173568388649, 14614.554001635792, -2956.0182042143592, 14966.593976806877, 7238.8583110402005, -187500.02235174447, -187500.02235174447, -0.18, -0.758, -0.642, 192.0, 0.0, 0.0, 0.0, 0.0, 0.0, 0.0, 0.0, 0.0, 0.0, 1.6776147405008974E9, 0.0, 2023-02-28 12:05:40.500
53.0, 25839.667122324365, -4229.330030599836, 14251.338154237052, -2959.2815589048337, 14768.579872677312, 7161.901254880579, -187500.02235174447, -187500.02235174447, -0.18, -0.758, -0.642, 192.0, 0.0, 0.0, 0.0, 0.0, 0.0, 0.0, 0.0, 0.0, 0.0, 1.6776147405049193E9, 0.0, 2023-02-28 12:05:40.504
54.0, 25967.586155842087, -4235.119132413761, 14960.29078487048, -2968.4457741315096, 15142.077522525493, 7503.480613646581, -187500.02235174447, -187500.02235174447, -0.178, -0.754, -0.642, 192.0, 250.0, 112.0, 232.0, 112.0, 235.0, 240.0, 0.0, 0.0, 0.0, 1.6776147405088053E9, 0.0, 2023-02-28 12:05:40.508
55.0, 26044.4985085128, -4235.119132413761, 15428.403368997977, -2966.3223584082557, 15397.535609905197, 7625.185862205728, -187500.02235174447, -187500.02235174447, -0.178, -0.754, -0.642, 192.0, 0.0, 0.0, 0.0, 0.0, 0.0, 0.0, 0.0, 0.0, 0.0, 1.6776147405118113E9, 0.0, 2023-02-28 12:05:40.511
56.0, 25942.641609029964, -4226.424303820647, 14759.214491750537, -2954.408878613577, 15050.345963280914, 7295.3858727676725, -187500.02235174447, -187500.02235174447, -0.178, -0.754, -0.642, 192.0, 0.0, 0.0, 0.0, 0.0, 0.0, 0.0, 0.0, 0.0, 0.0, 1.6776147405177908E9, 0.0, 2023-02-28 12:05:40.517
57.0, 25898.385155008455, -4225.373771831247, 14216.33532242004, -2953.6936227910073, 14753.11246551424, 7141.449408703972, -187500.02235174447, -187500.02235174447, -0.178, -0.754, -0.642, 192.0, 0.0, 0.0, 0.0, 0.0, 0.0, 0.0, 0.0, 0.0, 0.0, 1.6776147405208004E9, 0.0, 2023-02-28 12:05:40.520
58.0, 26023.53257221372, -4226.625469520744, 14793.077384600329, -2962.6119688286744, 15047.507291735088, 7447.288328085939, -187500.02235174447, -187500.02235174447, -0.178, -0.754, -0.642, 192.0, 0.0, 0.0, 0.0, 0.0, 0.0, 0.0, 0.0, 0.0, 0.0, 1.6776147405238445E9, 0.0, 2023-02-28 12:05:40.523
59.0, 26114.012433768803, -4225.641992764711, 15428.96216260936, -2963.2378176734233, 15390.00307202376, 7653.304356730504, -187500.02235174447, -187500.02235174447, -0.178, -0.754, -0.642, 192.0, 0.0, 0.0, 0.0, 0.0, 0.0, 0.0, 0.0, 0.0, 0.0, 1.6776147405288472E9, 0.0, 2023-02-28 12:05:40.528
60.0, 26020.403327989978, -4219.092931639306, 14907.250095278037, -2951.6819657900296, 15124.106719983427, 7365.302129423872, -187500.02235174447, -187500.02235174447, -0.178, -0.754, -0.642, 192.0, 0.0, 0.0, 0.0, 0.0, 0.0, 0.0, 0.0, 0.0, 0.0, 1.6776147405329103E9, 0.0, 2023-02-28 12:05:40.532
61.0, 25929.61054201252, -4217.371847316247, 14220.58215386655, -2948.664480288563, 14755.72761961551, 7127.636030630592, -187500.02235174447, -187500.02235174447, -0.178, -0.754, -0.642, 192.0, 0.0, 0.0, 0.0, 0.0, 0.0, 0.0, 0.0, 0.0, 0.0, 1.677614740535873E9, 0.0, 2023-02-28 12:05:40.535
62.0, 26036.697749697894, -4220.858719451275, 14634.603516412202, -2957.9181024930604, 14965.856369239853, 7376.545056884892, -187500.02235174447, -187500.02235174447, -0.178, -0.754, -0.642, 192.0, 0.0, 0.0, 0.0, 0.0, 0.0, 0.0, 0.0, 0.0, 0.0, 1.6776147405398667E9, 0.0, 2023-02-28 12:05:40.539
63.0, 26175.211510087433, -4219.6964287395995, 15389.645444112473, -2961.5390850948197, 15366.690202556874, 7651.247996240616, -187500.02235174447, -187500.02235174447, -0.178, -0.754, -0.642, 192.0, 0.0, 0.0, 0.0, 0.0, 0.0, 0.0, 0.0, 0.0, 0.0, 1.6776147405438282E9, 0.0, 2023-02-28 12:05:40.543
64.0, 26114.012433768803, -4215.807225204376, 15056.671506961764, -2951.7490210233955, 15197.979235408216, 7424.556603974892, -187500.02235174447, -187500.02235174447, -0.178, -0.754, -0.64, 192.0, 250.0, 112.0, 232.0, 112.0, 236.0, 0.0, 0.0, 0.0, 0.0, 1.6776147405478768E9, 0.0, 2023-02-28 12:05:40.547
65.0, 25995.436429433397, -4217.125978127239, 14270.9182823799, -2947.055154687781, 14783.376727506726, 7124.216213728931, -187500.02235174447, -187500.02235174447, -0.178, -0.754, -0.64, 192.0, 0.0, 0.0, 0.0, 0.0, 0.0, 0.0, 0.0, 0.0, 0.0, 1.6776147405518544E9, 0.0, 2023-02-28 12:05:40.551
66.0, 26064.413912822478, -4221.015181662462, 14489.898322808544, -2955.7052797919846, 14891.000377059028, 7300.705587948035, -187500.02235174447, -187500.02235174447, -0.178, -0.754, -0.64, 192.0, 0.0, 0.0, 0.0, 0.0, 0.0, 0.0, 0.0, 0.0, 0.0, 1.677614740556846E9, 0.0, 2023-02-28 12:05:40.556
67.0, 26216.606940818663, -4220.277574095438, 15311.749614685728, -2961.8520095171943, 15324.534812514165, 7632.047847753507, -187500.02235174447, -187500.02235174447, -0.178, -0.754, -0.64, 192.0, 0.0, 0.0, 0.0, 0.0, 0.0, 0.0, 0.0, 0.0, 0.0, 1.6776147405609035E9, 0.0, 2023-02-28 12:05:40.560
68.0, 26178.743085711372, -4218.511786283468, 15188.792668437085, -2954.6994512914957, 15268.096657764514, 7490.516601862503, -187500.02235174447, -187500.02235174447, -0.178, -0.754, -0.64, 192.0, 0.0, 0.0, 0.0, 0.0, 0.0, 0.0, 0.0, 0.0, 0.0, 1.6776147405638497E9, 0.0, 2023-02-28 12:05:40.563
69.0, 26048.790043448218, -4221.55162352939, 14359.051210767177, -2948.9103494775713, 14828.88487921773, 7148.132580296109, -187500.02235174447, -187500.02235174447, -0.178, -0.754, -0.64, 192.0, 0.0, 0.0, 0.0, 0.0, 0.0, 0.0, 0.0, 0.0, 0.0, 1.6776147405678391E9, 0.0, 2023-02-28 12:05:40.567
70.0, 26078.070828684668, -4224.591460775311, 14371.32231847314, -2956.1076111921802, 14823.453405315091, 7245.161502976597, -187500.02235174447, -187500.02235174447, -0.178, -0.754, -0.64, 192.0, 0.0, 0.0, 0.0, 0.0, 0.0, 0.0, 0.0, 0.0, 0.0, 1.6776147405719235E9, 0.0, 2023-02-28 12:05:40.571
71.0, 26231.224981692434, -4219.919946184153, 15203.634226755408, -2962.410803128577, 15260.295898949613, 7602.0294549500295, -187500.02235174447, -187500.02235174447, -0.178, -0.754, -0.64, 192.0, 0.0, 0.0, 0.0, 0.0, 0.0, 0.0, 0.0, 0.0, 0.0, 1.6776147405759504E9, 0.0, 2023-02-28 12:05:40.575
72.0, 26248.413473178563, -4210.778082701931, 15301.177239558368, -2955.0123757138704, 15319.818594434095, 7557.057745105952, -187500.02235174447, -187500.02235174447, -0.178, -0.754, -0.64, 192.0, 0.0, 0.0, 0.0, 0.0, 0.0, 0.0, 0.0, 0.0, 0.0, 1.6776147405798693E9, 0.0, 2023-02-28 12:05:40.579
73.0, 26115.80057332523, -4208.319390811848, 14481.158790726518, -2945.825808742739, 14893.079089293373, 7197.932266942534, -187500.02235174447, -187500.02235174447, -0.178, -0.754, -0.64, 192.0, 0.0, 0.0, 0.0, 0.0, 0.0, 0.0, 0.0, 0.0, 0.0, 1.6776147405848656E9, 0.0, 2023-02-28 12:05:40.584
74.0, 26119.242741971346, -4212.45446353608, 14280.663642962414, -2950.3855646116217, 14778.347585004281, 7198.178136131542, -187500.02235174447, -187500.02235174447, -0.178, -0.754, -0.634, 192.0, 250.0, 112.0, 232.0, 112.0, 236.0, 48.0, 0.0, 0.0, 0.0, 1.677614740588898E9, 0.0, 2023-02-28 12:05:40.588
75.0, 26274.207386279988, -4213.192071103104, 15064.852245432407, -2959.3039106492893, 15188.077412614515, 7553.727335182111, -187500.02235174447, -187500.02235174447, -0.178, -0.754, -0.634, 192.0, 0.0, 0.0, 0.0, 0.0, 0.0, 0.0, 0.0, 0.0, 0.0, 1.6776147405919027E9, 0.0, 2023-02-28 12:05:40.591
76.0, 26309.701956475015, -4208.654666978678, 15378.08959222908, -2955.7052797919846, 15363.650365310952, 7596.106242669373, -187500.02235174447, -187500.02235174447, -0.178, -0.754, -0.634, 192.0, 0.0, 0.0, 0.0, 0.0, 0.0, 0.0, 0.0, 0.0, 0.0, 1.6776147405958912E9, 0.0, 2023-02-28 12:05:40.595
77.0, 26168.953021639947, -4205.748940199487, 14622.958257550987, -2946.2281401429345, 14974.372383877324, 7239.439456396039, -187500.02235174447, -187500.02235174447, -0.178, -0.754, -0.634, 192.0, 0.0, 0.0, 0.0, 0.0, 0.0, 0.0, 0.0, 0.0, 0.0, 1.6776147405999181E9, 0.0, 2023-02-28 12:05:40.599
78.0, 26124.964788551904, -4207.40296928918, 14220.112767232988, -2948.44096284401, 14756.10759927125, 7149.965423341445, -187500.02235174447, -187500.02235174447, -0.178, -0.754, -0.634, 192.0, 0.0, 0.0, 0.0, 0.0, 0.0, 0.0, 0.0, 0.0, 0.0, 1.6776147406038983E9, 0.0, 2023-02-28 12:05:40.603
79.0, 26279.303584015797, -4205.681884966121, 14907.317150511402, -2956.3981838700993, 15114.920153012295, 7487.454412872125, -187500.02235174447, -187500.02235174447, -0.178, -0.754, -0.634, 192.0, 0.0, 0.0, 0.0, 0.0, 0.0, 0.0, 0.0, 0.0, 0.0, 1.6776147406079664E9, 0.0, 2023-02-28 12:05:40.607
80.0, 26367.302401936344, -4199.289286051904, 15414.254714757768, -2954.0065472133815, 15389.28781620119, 7627.041056995518, -187500.02235174447, -187500.02235174447, -0.178, -0.754, -0.634, 192.0, 0.0, 0.0, 0.0, 0.0, 0.0, 0.0, 0.0, 0.0, 0.0, 1.6776147406129909E9, 0.0, 2023-02-28 12:05:40.612
81.0, 26269.647630411106, -4194.997751116485, 14775.531265202913, -2943.5459308082977, 15059.398419785311, 7300.146794336652, -187500.02235174447, -187500.02235174447, -0.178, -0.754, -0.634, 192.0, 0.0, 0.0, 0.0, 0.0, 0.0, 0.0, 0.0, 0.0, 0.0, 1.6776147406170404E9, 0.0, 2023-02-28 12:05:40.617
82.0, 26224.51945835584, -4195.958876128063, 14200.197362923309, -2943.0765441747362, 14753.000706791963, 7123.74682709537, -187500.02235174447, -187500.02235174447, -0.178, -0.754, -0.634, 192.0, 0.0, 0.0, 0.0, 0.0, 0.0, 0.0, 0.0, 0.0, 0.0, 1.6776147406199708E9, 0.0, 2023-02-28 12:05:40.619
83.0, 26334.579448053773, -4192.44965224858, 14747.949212545063, -2951.1455239231022, 15039.907698620285, 7421.51676672897, -187500.02235174447, -187500.02235174447, -0.178, -0.754, -0.634, 192.0, 0.0, 0.0, 0.0, 0.0, 0.0, 0.0, 0.0, 0.0, 0.0, 1.677614740623965E9, 0.0, 2023-02-28 12:05:40.623
84.0, 26423.1370595857, -4185.453556234069, 15410.387862967, -2951.793724512306, 15395.90393255996, 7646.062391526984, -187500.02235174447, -187500.02235174447, -0.17400000000000002, -0.752, -0.638, 192.0, 250.0, 144.0, 232.0, 128.0, 236.0, 16.0, 0.0, 0.0, 0.0, 1.6776147406279843E9, 0.0, 2023-02-28 12:05:40.627
85.0, 26320.363738580196, -4182.771346899432, 14926.80787167643, -2941.7801429963283, 15147.240775494669, 7368.051393991876, -187500.02235174447, -187500.02235174447, -0.17400000000000002, -0.752, -0.638, 192.0, 0.0, 0.0, 0.0, 0.0, 0.0, 0.0, 0.0, 0.0, 0.0, 1.677614740632045E9, 0.0, 2023-02-28 12:05:40.632
86.0, 26213.276530894822, -4183.374843999725, 14213.876630529956, -2938.315622605756, 14769.809218622355, 7117.26482120333, -187500.02235174447, -187500.02235174447, -0.17400000000000002, -0.752, -0.638, 192.0, 0.0, 0.0, 0.0, 0.0, 0.0, 0.0, 0.0, 0.0, 0.0, 1.6776147406359642E9, 0.0, 2023-02-28 12:05:40.635
87.0, 26313.54645652133, -4180.267951520437, 14587.843667011699, -2945.9375674650155, 14959.642584281277, 7353.880388007211, -187500.02235174447, -187500.02235174447, -0.17400000000000002, -0.752, -0.638, 192.0, 0.0, 0.0, 0.0, 0.0, 0.0, 0.0, 0.0, 0.0, 0.0, 1.6776147406399949E9, 0.0, 2023-02-28 12:05:40.639
88.0, 26453.647190767195, -4176.356396240759, 15360.31995538711, -2949.1338669221245, 15370.668813069919, 7643.983679292641, -187500.02235174447, -187500.02235174447, -0.17400000000000002, -0.752, -0.638, 192.0, 0.0, 0.0, 0.0, 0.0, 0.0, 0.0, 0.0, 0.0, 0.0, 1.677614740644961E9, 0.0, 2023-02-28 12:05:40.644
89.0, 26401.098239552768, -4173.450669461568, 15071.021326902071, -2939.857892973172, 15226.075378188538, 7436.939470403132, -187500.02235174447, -187500.02235174447, -0.17400000000000002, -0.752, -0.638, 192.0, 0.0, 0.0, 0.0, 0.0, 0.0, 0.0, 0.0, 0.0, 0.0, 1.677614740648003E9, 0.0, 2023-02-28 12:05:40.648
90.0, 26285.562072463283, -4172.981282828007, 14274.11458183701, -2935.1863783820127, 14804.722643461544, 7130.072370776221, -187500.02235174447, -187500.02235174447, -0.17400000000000002, -0.752, -0.638, 192.0, 0.0, 0.0, 0.0, 0.0, 0.0, 0.0, 0.0, 0.0, 0.0, 1.6776147406520317E9, 0.0, 2023-02-28 12:05:40.652
91.0, 26349.35395113873, -4175.238809017993, 14454.135531680053, -2943.8812069751275, 14892.721461382087, 7294.961189623022, -187500.02235174447, -187500.02235174447, -0.17400000000000002, -0.752, -0.638, 192.0, 0.0, 0.0, 0.0, 0.0, 0.0, 0.0, 0.0, 0.0, 0.0, 1.677614740655984E9, 0.0, 2023-02-28 12:05:40.655
92.0, 26500.854075056803, -4181.318483509837, 15283.765230627685, -2953.1348291796244, 15325.27242008119, 7627.778664562544, -187500.02235174447, -187500.02235174447, -0.17400000000000002, -0.752, -0.638, 192.0, 0.0, 0.0, 0.0, 0.0, 0.0, 0.0, 0.0, 0.0, 0.0, 1.6776147406600246E9, 0.0, 2023-02-28 12:05:40.660
93.0, 26456.32940010183, -4178.099832308273, 15207.568133779543, -2946.1387331651135, 15295.902227866916, 7502.9441717796535, -187500.02235174447, -187500.02235174447, -0.17400000000000002, -0.752, -0.638, 192.0, 0.0, 0.0, 0.0, 0.0, 0.0, 0.0, 0.0, 0.0, 0.0, 1.6776147406639817E9, 0.0, 2023-02-28 12:05:40.663
94.0, 26313.814677454793, -4175.618788673733, 14378.564283676658, -2939.3885063396106, 14862.70306857861, 7156.805057144768, -187500.02235174447, -187500.02235174447, -0.17, -0.75, -0.642, 192.0, 250.0, 176.0, 232.0, 144.0, 235.0, 240.0, 0.0, 0.0, 0.0, 1.6776147406679833E9, 0.0, 2023-02-28 12:05:40.667
95.0, 26355.50068086394, -4177.7869078858985, 14345.75192281627, -2945.9375674650155, 14837.400893855203, 7231.437531881039, -187500.02235174447, -187500.02235174447, -0.17, -0.75, -0.642, 192.0, 0.0, 0.0, 0.0, 0.0, 0.0, 0.0, 0.0, 0.0, 0.0, 1.6776147406729808E9, 0.0, 2023-02-28 12:05:40.672
96.0, 26517.595531653827, -4177.183410785605, 15171.224197295214, -2954.0959541912025, 15269.54952115411, 7586.539696042502, -187500.02235174447, -187500.02235174447, -0.17, -0.75, -0.642, 192.0, 0.0, 0.0, 0.0, 0.0, 0.0, 0.0, 0.0, 0.0, 0.0, 1.677614740676098E9, 0.0, 2023-02-28 12:05:40.676
97.0, 26520.031871799456, -4168.801506614865, 15316.979922888271, -2947.3010238767893, 15354.642612295464, 7556.20837881665, -187500.02235174447, -187500.02235174447, -0.17, -0.75, -0.642, 192.0, 0.0, 0.0, 0.0, 0.0, 0.0, 0.0, 0.0, 0.0, 0.0, 1.6776147406810043E9, 0.0, 2023-02-28 12:05:40.681
98.0, 26374.522015395407, -4165.001710057462, 14508.651436406546, -2937.823884227739, 14933.066360123918, 7196.747624486402, -187500.02235174447, -187500.02235174447, -0.17, -0.75, -0.642, 192.0, 0.0, 0.0, 0.0, 0.0, 0.0, 0.0, 0.0, 0.0, 0.0, 1.6776147406840515E9, 0.0, 2023-02-28 12:05:40.684
99.0, 26355.813605286316, -4165.359337968747, 14265.799732899635, -2941.556625551775, 14799.6935009591, 7181.839010934712, -187500.02235174447, -187500.02235174447, -0.17, -0.75, -0.642, 192.0, 0.0, 0.0, 0.0, 0.0, 0.0, 0.0, 0.0, 0.0, 0.0, 1.6776147406900516E9, 0.0, 2023-02-28 12:05:40.690
100.0, 26508.699537360615, -4163.146515267672, 15034.74444565111, -2950.564378567264, 15200.504982531666, 7537.701134407656, -187500.02235174447, -187500.02235174447, -0.17, -0.75, -0.642, 192.0, 0.0, 0.0, 0.0, 0.0, 0.0, 0.0, 0.0, 0.0, 0.0, 1.677614740693096E9, 0.0, 2023-02-28 12:05:40.693
101.0, 26563.01427638701, -4162.721832123021, 15390.00307202376, -2948.4856663329206, 15393.28877845869, 7602.722359028145, -187500.02235174447, -187500.02235174447, -0.17, -0.75, -0.642, 192.0, 0.0, 0.0, 0.0, 0.0, 0.0, 0.0, 0.0, 0.0, 0.0, 1.6776147406980429E9, 0.0, 2023-02-28 12:05:40.698
102.0, 26439.364426060252, -4159.257311732449, 14656.24000504494, -2937.667422016552, 15012.862087829362, 7255.443305426038, -187500.02235174447, -187500.02235174447, -0.17, -0.75, -0.642, 192.0, 0.0, 0.0, 0.0, 0.0, 0.0, 0.0, 0.0, 0.0, 0.0, 1.677614740701072E9, 0.0, 2023-02-28 12:05:40.701
103.0, 26390.257643491943, -4157.133896009194, 14214.211906696786, -2937.823884227739, 14776.291224514393, 7149.898368108078, -187500.02235174447, -187500.02235174447, -0.17, -0.75, -0.642, 192.0, 0.0, 0.0, 0.0, 0.0, 0.0, 0.0, 0.0, 0.0, 0.0, 1.677614740704043E9, 0.0, 2023-02-28 12:05:40.704
104.0, 26531.00657832701, -4157.692689620578, 14873.18603672815, -2946.6081197986746, 15121.223344948692, 7478.848991256833, -187500.02235174447, -187500.02235174447, -0.176, -0.754, -0.64, 192.0, 250.0, 128.0, 232.0, 112.0, 236.0, 0.0, 0.0, 0.0, 0.0, 1.677614740708027E9, 0.0, 2023-02-28 12:05:40.708
105.0, 26617.038442735487, -4155.904550064153, 15414.277066502222, -2945.7811052538286, 15416.847517114582, 7636.808769322488, -187500.02235174447, -187500.02235174447, -0.176, -0.754, -0.64, 192.0, 0.0, 0.0, 0.0, 0.0, 0.0, 0.0, 0.0, 0.0, 0.0, 1.6776147407120316E9, 0.0, 2023-02-28 12:05:40.712
106.0, 26495.601415109806, -4151.098925006262, 14803.582704494323, -2934.404067326077, 15106.158269185815, 7320.173957368607, -187500.02235174447, -187500.02235174447, -0.176, -0.754, -0.64, 192.0, 0.0, 0.0, 0.0, 0.0, 0.0, 0.0, 0.0, 0.0, 0.0, 1.677614740716133E9, 0.0, 2023-02-28 12:05:40.716
107.0, 26416.56564671584, -4145.846265059265, 14194.922351231857, -2931.3418783357, 14784.740183918499, 7130.899385321068, -187500.02235174447, -187500.02235174447, -0.176, -0.754, -0.64, 192.0, 0.0, 0.0, 0.0, 0.0, 0.0, 0.0, 0.0, 0.0, 0.0, 1.6776147407200396E9, 0.0, 2023-02-28 12:05:40.720
108.0, 26539.075558075376, -4145.399230170158, 14703.692758523555, -2938.606195283675, 15049.11661733587, 7415.213574792573, -187500.02235174447, -187500.02235174447, -0.176, -0.754, -0.64, 192.0, 0.0, 0.0, 0.0, 0.0, 0.0, 0.0, 0.0, 0.0, 0.0, 1.677614740724094E9, 0.0, 2023-02-28 12:05:40.724
109.0, 26648.97908556212, -4146.025079014907, 15395.434545926399, -2939.9696516954486, 15418.702711904374, 7654.198426508717, -187500.02235174447, -187500.02235174447, -0.176, -0.754, -0.64, 192.0, 0.0, 0.0, 0.0, 0.0, 0.0, 0.0, 0.0, 0.0, 0.0, 1.677614740728046E9, 0.0, 2023-02-28 12:05:40.728
110.0, 26544.17175581119, -4143.186407469083, 14952.020639422017, -2929.9113666905605, 15197.129869118915, 7388.413833190661, -187500.02235174447, -187500.02235174447, -0.176, -0.754, -0.64, 192.0, 0.0, 0.0, 0.0, 0.0, 0.0, 0.0, 0.0, 0.0, 0.0, 1.6776147407310722E9, 0.0, 2023-02-28 12:05:40.731
111.0, 26425.439289264596, -4141.822951057309, 14222.772624823168, -2926.2680323443456, 14813.26100984347, 7125.64672537407, -187500.02235174447, -187500.02235174447, -0.176, -0.754, -0.64, 192.0, 0.0, 0.0, 0.0, 0.0, 0.0, 0.0, 0.0, 0.0, 0.0, 1.6776147407360833E9, 0.0, 2023-02-28 12:05:40.736
112.0, 26507.514894904485, -4142.426448157603, 14555.657154996057, -2934.24760511489, 14980.496761858078, 7348.493617593482, -187500.02235174447, -187500.02235174447, -0.176, -0.754, -0.64, 192.0, 0.0, 0.0, 0.0, 0.0, 0.0, 0.0, 0.0, 0.0, 0.0, 1.6776147407400873E9, 0.0, 2023-02-28 12:05:40.740
113.0, 26638.31730345694, -4143.074648746807, 15348.18295814788, -2939.567320295253, 15396.37331919352, 7651.717382874177, -187500.02235174447, -187500.02235174447, -0.176, -0.754, -0.64, 192.0, 0.0, 0.0, 0.0, 0.0, 0.0, 0.0, 0.0, 0.0, 0.0, 1.6776147407440789E9, 0.0, 2023-02-28 12:05:40.744
114.0, 26579.800436472946, -4142.560558624335, 15103.61017031791, -2932.012430669359, 15271.918806066371, 7459.961767192098, -187500.02235174447, -187500.02235174447, -0.176, -0.756, -0.64, 192.0, 250.0, 128.0, 232.0, 96.0, 236.0, 0.0, 0.0, 0.0, 0.0, 1.6776147407480803E9, 0.0, 2023-02-28 12:05:40.748
115.0, 26448.28277209792, -4144.393401669669, 14294.812297202623, -2927.4303230560213, 14844.08406544734, 7142.678754649014, -187500.02235174447, -187500.02235174447, -0.176, -0.756, -0.64, 192.0, 0.0, 0.0, 0.0, 0.0, 0.0, 0.0, 0.0, 0.0, 0.0, 1.6776147407521415E9, 0.0, 2023-02-28 12:05:40.752
116.0, 26499.356508178298, -4148.640233116178, 14431.917897691477, -2935.4322475710214, 14906.311322010913, 7287.026320341387, -187500.02235174447, -187500.02235174447, -0.176, -0.756, -0.64, 192.0, 0.0, 0.0, 0.0, 0.0, 0.0, 0.0, 0.0, 0.0, 0.0, 1.6776147407560909E9, 0.0, 2023-02-28 12:05:40.756
117.0, 26648.84497509539, -4148.304956949349, 15262.508721650687, -2942.5848057967196, 15345.366638346512, 7625.655248839289, -187500.02235174447, -187500.02235174447, -0.176, -0.756, -0.64, 192.0, 0.0, 0.0, 0.0, 0.0, 0.0, 0.0, 0.0, 0.0, 0.0, 1.6776147407590823E9, 0.0, 2023-02-28 12:05:40.759
118.0, 26626.35912017335, -4144.661622603134, 15229.830471257028, -2935.856930715672, 15340.94099294436, 7520.400884199248, -187500.02235174447, -187500.02235174447, -0.176, -0.756, -0.64, 192.0, 0.0, 0.0, 0.0, 0.0, 0.0, 0.0, 0.0, 0.0, 0.0, 1.677614740764073E9, 0.0, 2023-02-28 12:05:40.764
119.0, 26473.22731891004, -4144.169884225116, 14399.172592064453, -2928.123227134136, 14906.803060388931, 7173.077127108232, -187500.02235174447, -187500.02235174447, -0.176, -0.756, -0.64, 192.0, 0.0, 0.0, 0.0, 0.0, 0.0, 0.0, 0.0, 0.0, 0.0, 1.6776147407680728E9, 0.0, 2023-02-28 12:05:40.768
120.0, 26479.642269568714, -4146.002727270452, 14320.606210304048, -2932.995907425393, 14857.875091776265, 7230.342296402729, -187500.02235174447, -187500.02235174447, -0.176, -0.756, -0.64, 192.0, 0.0, 0.0, 0.0, 0.0, 0.0, 0.0, 0.0, 0.0, 0.0, 1.6776147407721229E9, 0.0, 2023-02-28 12:05:40.772
121.0, 26629.89069579729, -4146.360355181737, 15137.18249048978, -2940.573148795742, 15288.88378010795, 7588.618408276846, -187500.02235174447, -187500.02235174447, -0.176, -0.756, -0.64, 192.0, 0.0, 0.0, 0.0, 0.0, 0.0, 0.0, 0.0, 0.0, 0.0, 1.6776147407762942E9, 0.0, 2023-02-28 12:05:40.776
122.0, 26646.810966349956, -4143.141703980173, 15327.954629415826, -2935.052267915281, 15400.821316340127, 7578.604826760868, -187500.02235174447, -187500.02235174447, -0.176, -0.756, -0.64, 192.0, 0.0, 0.0, 0.0, 0.0, 0.0, 0.0, 0.0, 0.0, 0.0, 1.6776147407801E9, 0.0, 2023-02-28 12:05:40.780
123.0, 26511.158229250697, -4141.0406400013735, 14532.836023907188, -2925.731590477418, 14984.900055515775, 7221.043970709321, -187500.02235174447, -187500.02235174447, -0.176, -0.756, -0.64, 192.0, 0.0, 0.0, 0.0, 0.0, 0.0, 0.0, 0.0, 0.0, 0.0, 1.6776147407841582E9, 0.0, 2023-02-28 12:05:40.784
124.0, 26493.0533162419, -4140.5712533678125, 14246.688991390347, -2929.3525730791775, 14826.40383558319, 7187.494002281905, -187500.02235174447, -187500.02235174447, -0.176, -0.756, -0.64, 192.0, 0.0, 0.0, 0.0, 0.0, 0.0, 0.0, 0.0, 0.0, 0.0, 1.6776147407871015E9, 0.0, 2023-02-28 12:05:40.787
125.0, 26639.12196625733, -4139.520721378412, 14996.478259143623, -2938.896767961594, 15215.257133872168, 7539.645736175268, -187500.02235174447, -187500.02235174447, -0.176, -0.76, -0.636, 192.0, 250.0, 128.0, 232.0, 64.0, 236.0, 32.0, 0.0, 0.0, 0.0, 1.6776147407921152E9, 0.0, 2023-02-28 12:05:40.792
126.0, 26685.166559835263, -4139.364259167225, 15394.51812440373, -2937.1756836385352, 15429.431549242921, 7624.98469650563, -187500.02235174447, -187500.02235174447, -0.176, -0.76, -0.636, 192.0, 0.0, 0.0, 0.0, 0.0, 0.0, 0.0, 0.0, 0.0, 0.0, 1.6776147407961347E9, 0.0, 2023-02-28 12:05:40.796
127.0, 26553.738302438058, -4138.559596366835, 14683.129153624674, -2928.05617190077, 15060.22543433016, 7282.15364005013, -187500.02235174447, -187500.02235174447, -0.176, -0.76, -0.636, 192.0, 0.0, 0.0, 0.0, 0.0, 0.0, 0.0, 0.0, 0.0, 0.0, 1.677614740800142E9, 0.0, 2023-02-28 12:05:40.800
128.0, 26497.702479088603, -4136.458532388036, 14204.310083903085, -2927.765599222851, 14803.35918704977, 7158.123810067632, -187500.02235174447, -187500.02235174447, -0.176, -0.76, -0.636, 192.0, 0.0, 0.0, 0.0, 0.0, 0.0, 0.0, 0.0, 0.0, 0.0, 1.6776147408041155E9, 0.0, 2023-02-28 12:05:40.804
129.0, 26631.94705628718, -4135.251538187449, 14838.607888055789, -2936.5274830493313, 15133.941487543761, 7479.34072963485, -187500.02235174447, -187500.02235174447, -0.176, -0.76, -0.636, 192.0, 0.0, 0.0, 0.0, 0.0, 0.0, 0.0, 0.0, 0.0, 0.0, 1.6776147408082E9, 0.0, 2023-02-28 12:05:40.808
130.0, 26718.33654860694, -4134.558634109335, 15416.66870315894, -2935.991041182404, 15443.647258716495, 7655.673641642767, -187500.02235174447, -187500.02235174447, -0.176, -0.76, -0.636, 192.0, 0.0, 0.0, 0.0, 0.0, 0.0, 0.0, 0.0, 0.0, 0.0, 1.6776147408121781E9, 0.0, 2023-02-28 12:05:40.812
131.0, 26604.342651884876, -4133.619860842212, 14838.272611888959, -2925.239852099401, 15146.436112694279, 7348.784190271401, -187500.02235174447, -187500.02235174447, -0.176, -0.76, -0.636, 192.0, 0.0, 0.0, 0.0, 0.0, 0.0, 0.0, 0.0, 0.0, 0.0, 1.6776147408151555E9, 0.0, 2023-02-28 12:05:40.815
132.0, 26509.01246178299, -4133.9998404979515, 14201.359653634985, -2923.988154409904, 14808.276570829938, 7139.549510425271, -187500.02235174447, -187500.02235174447, -0.176, -0.76, -0.636, 192.0, 0.0, 0.0, 0.0, 0.0, 0.0, 0.0, 0.0, 0.0, 0.0, 1.6776147408192072E9, 0.0, 2023-02-28 12:05:40.819
133.0, 26614.26682642303, -4134.871558531709, 14681.586883257258, -2933.979384181426, 15056.984431384139, 7410.296191012406, -187500.02235174447, -187500.02235174447, -0.176, -0.76, -0.636, 192.0, 0.0, 0.0, 0.0, 0.0, 0.0, 0.0, 0.0, 0.0, 0.0, 1.6776147408241508E9, 0.0, 2023-02-28 12:05:40.824
134.0, 26724.215057398687, -4133.709267820032, 15396.976816293814, -2936.996869682893, 15438.953392380881, 7661.149819034317, -187500.02235174447, -187500.02235174447, -0.176, -0.76, -0.636, 192.0, 0.0, 0.0, 0.0, 0.0, 0.0, 0.0, 0.0, 0.0, 0.0, 1.6776147408281932E9, 0.0, 2023-02-28 12:05:40.828
135.0, 26629.9353992862, -4131.250575929949, 14991.694985830187, -2926.9832881669154, 15233.004418969682, 7412.196089291107, -187500.02235174447, -187500.02235174447, -0.178, -0.754, -0.64, 192.0, 250.0, 112.0, 232.0, 112.0, 236.0, 0.0, 0.0, 0.0, 0.0, 1.6776147408321996E9, 0.0, 2023-02-28 12:05:40.832
136.0, 26511.515857161983, -4128.76953229541, 14239.871709331479, -2922.1329596201135, 14833.444635086613, 7138.566033669238, -187500.02235174447, -187500.02235174447, -0.178, -0.754, -0.64, 192.0, 0.0, 0.0, 0.0, 0.0, 0.0, 0.0, 0.0, 0.0, 0.0, 1.677614740836171E9, 0.0, 2023-02-28 12:05:40.836
137.0, 26590.79749474496, -4127.651945072645, 14533.528927985302, -2929.53138703482, 14979.423878124224, 7347.219568159529, -187500.02235174447, -187500.02235174447, -0.178, -0.754, -0.64, 192.0, 0.0, 0.0, 0.0, 0.0, 0.0, 0.0, 0.0, 0.0, 0.0, 1.6776147408392272E9, 0.0, 2023-02-28 12:05:40.839
138.0, 26726.606694055405, -4127.093151461262, 15337.185899875869, -2934.5605295372643, 15403.972912308325, 7659.942824833731, -187500.02235174447, -187500.02235174447, -0.178, -0.754, -0.64, 192.0, 0.0, 0.0, 0.0, 0.0, 0.0, 0.0, 0.0, 0.0, 0.0, 1.6776147408431897E9, 0.0, 2023-02-28 12:05:40.843
139.0, 26667.32986775993, -4125.081494460284, 15133.650914865842, -2926.223328855435, 15305.334664027056, 7485.57686633788, -187500.02235174447, -187500.02235174447, -0.178, -0.754, -0.64, 192.0, 0.0, 0.0, 0.0, 0.0, 0.0, 0.0, 0.0, 0.0, 0.0, 1.677614740847224E9, 0.0, 2023-02-28 12:05:40.847
140.0, 26533.666435917192, -4122.511043847924, 14314.571239301114, -2919.9424886634934, 14874.102458250816, 7159.621376946137, -187500.02235174447, -187500.02235174447, -0.178, -0.754, -0.64, 192.0, 0.0, 0.0, 0.0, 0.0, 0.0, 0.0, 0.0, 0.0, 0.0, 1.6776147408522525E9, 0.0, 2023-02-28 12:05:40.852
141.0, 26575.441846304162, -4124.00861072643, 14405.766356678769, -2926.446846299988, 14917.24132504956, 7287.071023830298, -187500.02235174447, -187500.02235174447, -0.178, -0.754, -0.64, 192.0, 0.0, 0.0, 0.0, 0.0, 0.0, 0.0, 0.0, 0.0, 0.0, 1.677614740856233E9, 0.0, 2023-02-28 12:05:40.856
142.0, 26717.844810228922, -4126.53435784988, 15239.151148694891, -2933.375887081133, 15358.196539663857, 7631.444350653214, -187500.02235174447, -187500.02235174447, -0.178, -0.754, -0.64, 192.0, 0.0, 0.0, 0.0, 0.0, 0.0, 0.0, 0.0, 0.0, 0.0, 1.6776147408602812E9, 0.0, 2023-02-28 12:05:40.860
143.0, 26694.934272162234, -4128.300145661849, 15253.92565177985, -2928.212634111957, 15374.066278227125, 7543.892567621776, -187500.02235174447, -187500.02235174447, -0.178, -0.754, -0.64, 192.0, 0.0, 0.0, 0.0, 0.0, 0.0, 0.0, 0.0, 0.0, 0.0, 1.6776147408642056E9, 0.0, 2023-02-28 12:05:40.864
144.0, 26553.134805337766, -4129.216567184516, 14426.9558104224, -2920.724799719429, 14938.453130537646, 7192.813717462268, -187500.02235174447, -187500.02235174447, -0.178, -0.754, -0.64, 192.0, 0.0, 0.0, 0.0, 0.0, 0.0, 0.0, 0.0, 0.0, 0.0, 1.6776147408672554E9, 0.0, 2023-02-28 12:05:40.867
