%OpenBCI Raw EEG Data
%Number of channels = 8
%Sample Rate = 250 Hz
%Board = OpenBCI_GUI$BoardCytonSerial
Sample Index, EXG Channel 0, EXG Channel 1, EXG Channel 2, EXG Channel 3, EXG Channel 4, EXG Channel 5, EXG Channel 6, EXG Channel 7, Accel Channel 0, Accel Channel 1, Accel Channel 2, Other, Other, Other, Other, Other, Other, Other, Analog Channel 0, Analog Channel 1, Analog Channel 2, Timestamp, Other, Timestamp (Formatted)
242.0, 26419.404318261662, -4336.014906885017, 14748.977392790008, -2927.2962125892896, 15406.923342576427, 7886.3659961659905, -187500.02235174447, -187500.02235174447, 0.0, 0.0, 0.0, 192.0, 0.0, 0.0, 0.0, 0.0, 0.0, 0.0, 0.0, 0.0, 0.0, 1.6776146571001883E9, 0.0, 2023-02-28 12:04:17.100
243.0, 26425.37223403123, -4330.538729493467, 14803.336835305314, -2918.4896252738986, 15441.792063926705, 7815.287448798114, -187500.02235174447, -187500.02235174447, 0.0, 0.0, 0.0, 192.0, 0.0, 0.0, 0.0, 0.0, 0.0, 0.0, 0.0, 0.0, 0.0, 1.6776146571002307E9, 0.0, 2023-02-28 12:04:17.100
244.0, 26276.464912469975, -4329.2870318039695, 13955.445761137697, -2909.5265757473203, 15005.106032503372, 7441.141598360729, -187500.02235174447, -187500.02235174447, 0.0, 0.0, 0.0, 192.0, 0.0, 0.0, 0.0, 0.0, 0.0, 0.0, 0.0, 0.0, 0.0, 1.6776146571002517E9, 0.0, 2023-02-28 12:04:17.100
245.0, 26252.839118580716, -4322.872081145297, 13788.366471334277, -2910.822976925728, 14918.873002394797, 7471.897598731232, -187500.02235174447, -187500.02235174447, -0.192, -0.758, -0.638, 192.0, 250.0, 0.0, 232.0, 80.0, 236.0, 16.0, 0.0, 0.0, 0.0, 1.6776146571002743E9, 0.0, 2023-02-28 12:04:17.100
0.0, 0.0, 0.0, 0.0, 0.0, 0.0, 0.0, 0.0, 0.0, -0.186, -0.76, -0.628, 192.0, 250.0, 48.0, 232.0, 64.0, 236.0, 96.0, 0.0, 0.0, 0.0, 1.6776146571773622E9, 0.0, 2023-02-28 12:04:17.177
1.0, 27596.715402211597, -4239.701240027099, 14840.50778633449, -2811.447121077433, 15166.060944326038, 7598.721396770644, -187500.02235174447, -187500.02235174447, -0.186, -0.76, -0.628, 192.0, 0.0, 0.0, 0.0, 0.0, 0.0, 0.0, 0.0, 0.0, 0.0, 1.6776146571933877E9, 0.0, 2023-02-28 12:04:17.193
2.0, 27446.802252149853, -4243.322222628859, 13850.750190109038, -2808.1390628980475, 14653.915423621587, 7242.278127941862, -187500.02235174447, -187500.02235174447, -0.186, -0.76, -0.628, 192.0, 0.0, 0.0, 0.0, 0.0, 0.0, 0.0, 0.0, 0.0, 0.0, 1.6776146571983964E9, 0.0, 2023-02-28 12:04:17.198
3.0, 27540.5007649065, -4245.333879629837, 14329.546908086171, -2820.5219293262876, 14900.499868452534, 7555.694288694178, -187500.02235174447, -187500.02235174447, -0.186, -0.76, -0.628, 192.0, 0.0, 0.0, 0.0, 0.0, 0.0, 0.0, 0.0, 0.0, 0.0, 1.6776146572013347E9, 0.0, 2023-02-28 12:04:17.201
4.0, 27700.941586606692, -4245.2891761409255, 15399.457859928354, -2827.6521358075306, 15463.875587448549, 7958.159799356437, -187500.02235174447, -187500.02235174447, -0.186, -0.76, -0.628, 192.0, 0.0, 0.0, 0.0, 0.0, 0.0, 0.0, 0.0, 0.0, 0.0, 1.677614657204327E9, 0.0, 2023-02-28 12:04:17.204
5.0, 27606.4160593052, -4246.250301152504, 15045.49563473411, -2817.3703333580893, 15287.945006840828, 7687.547229236035, -187500.02235174447, -187500.02235174447, -0.186, -0.76, -0.628, 192.0, 0.0, 0.0, 0.0, 0.0, 0.0, 0.0, 0.0, 0.0, 0.0, 1.6776146572083604E9, 0.0, 2023-02-28 12:04:17.208
6.0, 27427.13271702918, -4246.987908719529, 13948.024981978535, -2810.0389611767487, 14707.783127758878, 7259.95835780601, -187500.02235174447, -187500.02235174447, -0.186, -0.76, -0.628, 192.0, 0.0, 0.0, 0.0, 0.0, 0.0, 0.0, 0.0, 0.0, 0.0, 1.6776146572123783E9, 0.0, 2023-02-28 12:04:17.212
7.0, 27486.029563668915, -4249.55835933189, 14144.27329829613, -2819.091417681148, 14800.721681204044, 7464.543874805436, -187500.02235174447, -187500.02235174447, -0.186, -0.76, -0.628, 192.0, 0.0, 0.0, 0.0, 0.0, 0.0, 0.0, 0.0, 0.0, 0.0, 1.6776146572163515E9, 0.0, 2023-02-28 12:04:17.216
8.0, 27670.163234491734, -4251.212388421582, 15285.061631806093, -2828.166225930003, 15401.3354064626, 7928.454330975334, -187500.02235174447, -187500.02235174447, -0.18, -0.768, -0.63, 192.0, 250.0, 96.0, 232.0, 0.0, 236.0, 80.0, 0.0, 0.0, 0.0, 1.6776146572213924E9, 0.0, 2023-02-28 12:04:17.221
9.0, 27645.598667335355, -4250.988870977029, 15232.646791058398, -2819.2031764034245, 15388.460801656343, 7776.216599490238, -187500.02235174447, -187500.02235174447, -0.18, -0.768, -0.63, 192.0, 0.0, 0.0, 0.0, 0.0, 0.0, 0.0, 0.0, 0.0, 0.0, 1.677614657224395E9, 0.0, 2023-02-28 12:04:17.224
10.0, 27461.934383146094, -4249.267786653971, 14094.27244594961, -2808.8096152317066, 14779.711041416054, 7304.30421880534, -187500.02235174447, -187500.02235174447, -0.18, -0.768, -0.63, 192.0, 0.0, 0.0, 0.0, 0.0, 0.0, 0.0, 0.0, 0.0, 0.0, 1.6776146572284403E9, 0.0, 2023-02-28 12:04:17.228
11.0, 27456.972295877018, -4250.944167488118, 13996.550619191006, -2817.0127054468044, 14715.33801738477, 7387.050376778887, -187500.02235174447, -187500.02235174447, -0.18, -0.768, -0.63, 192.0, 0.0, 0.0, 0.0, 0.0, 0.0, 0.0, 0.0, 0.0, 0.0, 1.6776146572324522E9, 0.0, 2023-02-28 12:04:17.232
12.0, 27642.581181833888, -4253.536969844934, 15126.140728728858, -2828.6579643080195, 15320.600905490031, 7877.984091995251, -187500.02235174447, -187500.02235174447, -0.18, -0.768, -0.63, 192.0, 0.0, 0.0, 0.0, 0.0, 0.0, 0.0, 0.0, 0.0, 0.0, 1.67761465723737E9, 0.0, 2023-02-28 12:04:17.237
13.0, 27655.76871106252, -4252.575844833355, 15371.495827614764, -2822.734752027363, 15456.655973989486, 7857.375783607457, -187500.02235174447, -187500.02235174447, -0.18, -0.768, -0.63, 192.0, 0.0, 0.0, 0.0, 0.0, 0.0, 0.0, 0.0, 0.0, 0.0, 1.6776146572414603E9, 0.0, 2023-02-28 12:04:17.241
14.0, 27466.963525648538, -4252.866417511274, 14272.505256236227, -2810.4189408324887, 14884.205446744616, 7363.513989867448, -187500.02235174447, -187500.02235174447, -0.18, -0.768, -0.63, 192.0, 0.0, 0.0, 0.0, 0.0, 0.0, 0.0, 0.0, 0.0, 0.0, 1.6776146572443867E9, 0.0, 2023-02-28 12:04:17.244
15.0, 27433.3241502433, -4250.564187832379, 13889.485763250086, -2812.899984467028, 14673.987290142453, 7318.430521301094, -187500.02235174447, -187500.02235174447, -0.18, -0.768, -0.63, 192.0, 0.0, 0.0, 0.0, 0.0, 0.0, 0.0, 0.0, 0.0, 0.0, 1.6776146572494483E9, 0.0, 2023-02-28 12:04:17.249
16.0, 27631.673530539698, -4249.6030628208, 14934.519223513511, -2824.858167750617, 15219.593372296498, 7805.475032982235, -187500.02235174447, -187500.02235174447, -0.18, -0.768, -0.63, 192.0, 0.0, 0.0, 0.0, 0.0, 0.0, 0.0, 0.0, 0.0, 0.0, 1.677614657252409E9, 0.0, 2023-02-28 12:04:17.252
17.0, 27693.56551093644, -4249.245434909515, 15461.573357769652, -2821.6842200379638, 15508.802593803715, 7912.718702878798, -187500.02235174447, -187500.02235174447, -0.18, -0.768, -0.63, 192.0, 0.0, 0.0, 0.0, 0.0, 0.0, 0.0, 0.0, 0.0, 0.0, 1.67761465725538E9, 0.0, 2023-02-28 12:04:17.255
18.0, 27507.129610434728, -4247.636109308733, 14477.180180213474, -2808.340228598145, 14993.30431143097, 7436.8500634253105, -187500.02235174447, -187500.02235174447, -0.19, -0.772, -0.628, 192.0, 250.0, 16.0, 231.0, 224.0, 236.0, 96.0, 0.0, 0.0, 0.0, 1.677614657260383E9, 0.0, 2023-02-28 12:04:17.260
19.0, 27422.05887103783, -4249.0442692094175, 13835.863928301804, -2810.798920488229, 14648.193377041029, 7269.904884088623, -187500.02235174447, -187500.02235174447, -0.19, -0.772, -0.628, 192.0, 0.0, 0.0, 0.0, 0.0, 0.0, 0.0, 0.0, 0.0, 0.0, 1.6776146572644897E9, 0.0, 2023-02-28 12:04:17.264
20.0, 27586.83593116235, -4250.072449454361, 14723.742273299966, -2824.0088014613157, 15107.678187808775, 7721.678343019288, -187500.02235174447, -187500.02235174447, -0.19, -0.772, -0.628, 192.0, 0.0, 0.0, 0.0, 0.0, 0.0, 0.0, 0.0, 0.0, 0.0, 1.6776146572704809E9, 0.0, 2023-02-28 12:04:17.270
21.0, 27688.67047890073, -4247.926681986652, 15498.520791354274, -2824.2323189058684, 15526.438120178953, 7952.840084176074, -187500.02235174447, -187500.02235174447, -0.19, -0.772, -0.628, 192.0, 0.0, 0.0, 0.0, 0.0, 0.0, 0.0, 0.0, 0.0, 0.0, 1.677614657273456E9, 0.0, 2023-02-28 12:04:17.273
22.0, 27535.53867763742, -4244.372754618258, 14697.121345653695, -2811.0447896772375, 15115.434243134767, 7519.931497565687, -187500.02235174447, -187500.02235174447, -0.19, -0.772, -0.628, 192.0, 0.0, 0.0, 0.0, 0.0, 0.0, 0.0, 0.0, 0.0, 0.0, 1.6776146572764869E9, 0.0, 2023-02-28 12:04:17.276
23.0, 27411.75471684393, -4247.479647097546, 13834.969858523591, -2809.6813332654638, 14653.893071877132, 7239.305345929307, -187500.02235174447, -187500.02235174447, -0.19, -0.772, -0.628, 192.0, 0.0, 0.0, 0.0, 0.0, 0.0, 0.0, 0.0, 0.0, 0.0, 1.6776146572794693E9, 0.0, 2023-02-28 12:04:17.279
24.0, 27536.142174737714, -4250.541836087923, 14505.477488693892, -2821.6171648045975, 14999.451041156179, 7628.180995962739, -187500.02235174447, -187500.02235174447, -0.19, -0.772, -0.628, 192.0, 0.0, 0.0, 0.0, 0.0, 0.0, 0.0, 0.0, 0.0, 0.0, 1.6776146572834136E9, 0.0, 2023-02-28 12:04:17.283
25.0, 27688.536368433997, -4248.820751764864, 15471.408125329986, -2825.260499150813, 15511.30598918271, 7970.766183229231, -187500.02235174447, -187500.02235174447, -0.19, -0.772, -0.628, 192.0, 0.0, 0.0, 0.0, 0.0, 0.0, 0.0, 0.0, 0.0, 0.0, 1.6776146572884285E9, 0.0, 2023-02-28 12:04:17.288
26.0, 27589.406381774712, -4246.183245919138, 14906.33367375537, -2813.0564466782153, 15219.213392640757, 7626.951650017697, -187500.02235174447, -187500.02235174447, -0.19, -0.772, -0.628, 192.0, 0.0, 0.0, 0.0, 0.0, 0.0, 0.0, 0.0, 0.0, 0.0, 1.6776146572924657E9, 0.0, 2023-02-28 12:04:17.292
27.0, 27428.18324901858, -4246.138542430227, 13883.763716669526, -2808.69785650943, 14674.479028520469, 7252.984613535955, -187500.02235174447, -187500.02235174447, -0.19, -0.772, -0.628, 192.0, 0.0, 0.0, 0.0, 0.0, 0.0, 0.0, 0.0, 0.0, 0.0, 1.6776146572964714E9, 0.0, 2023-02-28 12:04:17.296
28.0, 27511.376441881235, -4249.312490142881, 14296.801602459145, -2821.2595368933125, 14883.020804288484, 7539.891605364276, -187500.02235174447, -187500.02235174447, -0.188, -0.768, -0.628, 192.0, 250.0, 32.0, 232.0, 0.0, 236.0, 96.0, 0.0, 0.0, 0.0, 1.6776146573004909E9, 0.0, 2023-02-28 12:04:17.300
29.0, 27690.2351010126, -4248.84310350932, 15394.115793003535, -2828.769723030296, 15458.44411354591, 7959.545607512666, -187500.02235174447, -187500.02235174447, -0.188, -0.768, -0.628, 192.0, 0.0, 0.0, 0.0, 0.0, 0.0, 0.0, 0.0, 0.0, 0.0, 1.67761465730444E9, 0.0, 2023-02-28 12:04:17.304
30.0, 27626.4208705927, -4247.926681986652, 15111.254466921624, -2817.6832577804635, 15327.597001504542, 7715.57631678299, -187500.02235174447, -187500.02235174447, -0.188, -0.768, -0.628, 192.0, 0.0, 0.0, 0.0, 0.0, 0.0, 0.0, 0.0, 0.0, 0.0, 1.6776146573075423E9, 0.0, 2023-02-28 12:04:17.307
31.0, 27450.62440045171, -4248.016088964473, 13994.404851723297, -2809.4354640764554, 14739.567308374324, 7271.313043989307, -187500.02235174447, -187500.02235174447, -0.188, -0.768, -0.628, 192.0, 0.0, 0.0, 0.0, 0.0, 0.0, 0.0, 0.0, 0.0, 0.0, 1.6776146573115015E9, 0.0, 2023-02-28 12:04:17.311
32.0, 27484.241424112493, -4249.781876776442, 14120.848670106969, -2819.158472914514, 14797.50303000248, 7446.729534474556, -187500.02235174447, -187500.02235174447, -0.188, -0.768, -0.628, 192.0, 0.0, 0.0, 0.0, 0.0, 0.0, 0.0, 0.0, 0.0, 0.0, 1.6776146573165033E9, 0.0, 2023-02-28 12:04:17.316
33.0, 27667.57043213492, -4248.88780699823, 15269.437762431833, -2828.210929418913, 15403.749394863773, 7919.133653537471, -187500.02235174447, -187500.02235174447, -0.188, -0.768, -0.628, 192.0, 0.0, 0.0, 0.0, 0.0, 0.0, 0.0, 0.0, 0.0, 0.0, 1.6776146573204498E9, 0.0, 2023-02-28 12:04:17.320
34.0, 27635.00394046354, -4247.122019186261, 15281.97709107126, -2819.672563036986, 15419.57442993813, 7797.696625911788, -187500.02235174447, -187500.02235174447, -0.188, -0.768, -0.628, 192.0, 0.0, 0.0, 0.0, 0.0, 0.0, 0.0, 0.0, 0.0, 0.0, 1.677614657324536E9, 0.0, 2023-02-28 12:04:17.324
35.0, 27442.19779279206, -4247.144370930716, 14140.562908716549, -2808.541394298243, 14822.201707625594, 7314.630724743692, -187500.02235174447, -187500.02235174447, -0.188, -0.768, -0.628, 192.0, 0.0, 0.0, 0.0, 0.0, 0.0, 0.0, 0.0, 0.0, 0.0, 1.677614657328464E9, 0.0, 2023-02-28 12:04:17.328
36.0, 27447.808080650342, -4247.837275008831, 13972.254272968088, -2814.933993212461, 14719.316627897815, 7369.303091681372, -187500.02235174447, -187500.02235174447, -0.188, -0.768, -0.628, 192.0, 0.0, 0.0, 0.0, 0.0, 0.0, 0.0, 0.0, 0.0, 0.0, 1.6776146573314645E9, 0.0, 2023-02-28 12:04:17.331
37.0, 27649.465519126123, -4250.139504687727, 15096.167039414293, -2826.89217649605, 15309.290922795646, 7864.729507533254, -187500.02235174447, -187500.02235174447, -0.188, -0.768, -0.628, 192.0, 0.0, 0.0, 0.0, 0.0, 0.0, 0.0, 0.0, 0.0, 0.0, 1.6776146573354547E9, 0.0, 2023-02-28 12:04:17.335
38.0, 27671.660801370243, -4248.865455253775, 15411.371339723033, -2821.5948130601423, 15482.673404535462, 7874.407812882401, -187500.02235174447, -187500.02235174447, -0.184, -0.764, -0.624, 192.0, 250.0, 64.0, 232.0, 32.0, 236.0, 128.0, 0.0, 0.0, 0.0, 1.6776146573394928E9, 0.0, 2023-02-28 12:04:17.339
39.0, 27471.657391984154, -4245.847969752308, 14328.541079585682, -2809.4801675653657, 14915.274371537493, 7382.155344743174, -187500.02235174447, -187500.02235174447, -0.184, -0.764, -0.624, 192.0, 0.0, 0.0, 0.0, 0.0, 0.0, 0.0, 0.0, 0.0, 0.0, 1.677614657344561E9, 0.0, 2023-02-28 12:04:17.344
40.0, 27433.212391521025, -4248.865455253775, 13881.349728268353, -2814.3081443677124, 14673.741420953444, 7306.248820572951, -187500.02235174447, -187500.02235174447, -0.184, -0.764, -0.624, 192.0, 0.0, 0.0, 0.0, 0.0, 0.0, 0.0, 0.0, 0.0, 0.0, 1.6776146573485918E9, 0.0, 2023-02-28 12:04:17.348
41.0, 27617.055489665927, -4250.675946554655, 14903.852630120831, -2827.5850805741647, 15206.67406400133, 7787.481878695712, -187500.02235174447, -187500.02235174447, -0.184, -0.764, -0.624, 192.0, 0.0, 0.0, 0.0, 0.0, 0.0, 0.0, 0.0, 0.0, 0.0, 1.6776146573524911E9, 0.0, 2023-02-28 12:04:17.352
42.0, 27674.924156060715, -4249.826580265353, 15497.045576220224, -2825.5287200842763, 15526.16989924549, 7925.95093559634, -187500.02235174447, -187500.02235174447, -0.184, -0.764, -0.624, 192.0, 0.0, 0.0, 0.0, 0.0, 0.0, 0.0, 0.0, 0.0, 0.0, 1.6776146573565404E9, 0.0, 2023-02-28 12:04:17.356
43.0, 27492.06453467185, -4248.329013386848, 14548.482245025903, -2813.2352606338577, 15036.443178229712, 7459.313566602894, -187500.02235174447, -187500.02235174447, -0.184, -0.764, -0.624, 192.0, 0.0, 0.0, 0.0, 0.0, 0.0, 0.0, 0.0, 0.0, 0.0, 1.6776146573605168E9, 0.0, 2023-02-28 12:04:17.360
44.0, 27406.81498131931, -4249.804228520898, 13852.337163965365, -2814.2634408788017, 14663.861949904198, 7267.088564287254, -187500.02235174447, -187500.02235174447, -0.184, -0.764, -0.624, 192.0, 0.0, 0.0, 0.0, 0.0, 0.0, 0.0, 0.0, 0.0, 0.0, 1.677614657363501E9, 0.0, 2023-02-28 12:04:17.363
45.0, 27567.278154763957, -4252.88876925573, 14701.278770122382, -2827.450970107433, 15104.548943585032, 7708.468462046202, -187500.02235174447, -187500.02235174447, -0.184, -0.764, -0.624, 192.0, 0.0, 0.0, 0.0, 0.0, 0.0, 0.0, 0.0, 0.0, 0.0, 1.6776146573675675E9, 0.0, 2023-02-28 12:04:17.367
46.0, 27682.61315615334, -4250.832408765842, 15532.517794670797, -2828.121522441092, 15547.31464950021, 7967.324014583113, -187500.02235174447, -187500.02235174447, -0.184, -0.764, -0.624, 192.0, 0.0, 0.0, 0.0, 0.0, 0.0, 0.0, 0.0, 0.0, 0.0, 1.6776146573735037E9, 0.0, 2023-02-28 12:04:17.373
47.0, 27537.63974161622, -4247.546702330912, 14779.129896060216, -2814.732827512363, 15163.088162313481, 7554.308480537949, -187500.02235174447, -187500.02235174447, -0.184, -0.764, -0.624, 192.0, 0.0, 0.0, 0.0, 0.0, 0.0, 0.0, 0.0, 0.0, 0.0, 1.6776146573766303E9, 0.0, 2023-02-28 12:04:17.376
48.0, 27410.19009473206, -4245.691507541122, 13876.633510188283, -2811.0671414216927, 14682.704470480023, 7254.191607736541, -187500.02235174447, -187500.02235174447, -0.184, -0.772, -0.63, 192.0, 250.0, 64.0, 231.0, 224.0, 236.0, 80.0, 0.0, 0.0, 0.0, 1.67761465738052E9, 0.0, 2023-02-28 12:04:17.380
49.0, 27539.383177683732, -4250.206559921094, 14498.302578723738, -2824.187615416958, 14997.484087644112, 7618.547394102502, -187500.02235174447, -187500.02235174447, -0.184, -0.772, -0.63, 192.0, 0.0, 0.0, 0.0, 0.0, 0.0, 0.0, 0.0, 0.0, 0.0, 1.6776146573846164E9, 0.0, 2023-02-28 12:04:17.384
50.0, 27700.3380895064, -4253.581673333844, 15509.495497881831, -2830.2672899088016, 15531.668428381496, 7978.857514722052, -187500.02235174447, -187500.02235174447, -0.184, -0.772, -0.63, 192.0, 0.0, 0.0, 0.0, 0.0, 0.0, 0.0, 0.0, 0.0, 0.0, 1.6776146573875768E9, 0.0, 2023-02-28 12:04:17.387
51.0, 27587.08180035136, -4252.3299756443475, 15006.089509259406, -2818.2644031363016, 15277.372631713466, 7652.164417763283, -187500.02235174447, -187500.02235174447, -0.184, -0.772, -0.63, 192.0, 0.0, 0.0, 0.0, 0.0, 0.0, 0.0, 0.0, 0.0, 0.0, 1.6776146573915474E9, 0.0, 2023-02-28 12:04:17.391
52.0, 27422.952940816038, -4249.245434909515, 13952.584737847417, -2811.6482867775308, 14718.19904067505, 7260.807724095313, -187500.02235174447, -187500.02235174447, -0.184, -0.772, -0.63, 192.0, 0.0, 0.0, 0.0, 0.0, 0.0, 0.0, 0.0, 0.0, 0.0, 1.6776146573955789E9, 0.0, 2023-02-28 12:04:17.395
53.0, 27513.29869190439, -4246.607929063789, 14303.194201373364, -2821.058371193215, 14889.256940991514, 7530.5932796708685, -187500.02235174447, -187500.02235174447, -0.184, -0.772, -0.63, 192.0, 0.0, 0.0, 0.0, 0.0, 0.0, 0.0, 0.0, 0.0, 0.0, 1.6776146574005547E9, 0.0, 2023-02-28 12:04:17.400
54.0, 27689.43043821221, -4247.926681986652, 15424.268296273745, -2829.0155922193044, 15490.004776716803, 7963.121886625516, -187500.02235174447, -187500.02235174447, -0.184, -0.772, -0.63, 192.0, 0.0, 0.0, 0.0, 0.0, 0.0, 0.0, 0.0, 0.0, 0.0, 1.6776146574045713E9, 0.0, 2023-02-28 12:04:17.404
55.0, 27622.933998457673, -4245.825618007853, 15208.126927390926, -2817.9738304583825, 15392.886447058494, 7745.125322952906, -187500.02235174447, -187500.02235174447, -0.184, -0.772, -0.63, 192.0, 0.0, 0.0, 0.0, 0.0, 0.0, 0.0, 0.0, 0.0, 0.0, 1.6776146574085932E9, 0.0, 2023-02-28 12:04:17.408
56.0, 27436.743967144965, -4246.652632552699, 14072.278329405586, -2809.614278032098, 14795.312559045859, 7287.16043080812, -187500.02235174447, -187500.02235174447, -0.184, -0.772, -0.63, 192.0, 0.0, 0.0, 0.0, 0.0, 0.0, 0.0, 0.0, 0.0, 0.0, 1.6776146574125896E9, 0.0, 2023-02-28 12:04:17.412
57.0, 27478.96641242104, -4251.748830288509, 14136.673705181325, -2819.9854874593602, 14818.26780060146, 7435.687772713634, -187500.02235174447, -187500.02235174447, -0.184, -0.772, -0.63, 192.0, 0.0, 0.0, 0.0, 0.0, 0.0, 0.0, 0.0, 0.0, 0.0, 1.6776146574155488E9, 0.0, 2023-02-28 12:04:17.415
58.0, 27665.84934781186, -4254.967481490074, 15290.358995242, -2830.89313875355, 15423.284819517712, 7921.391179727457, -187500.02235174447, -187500.02235174447, -0.186, -0.778, -0.624, 192.0, 250.0, 48.0, 231.0, 176.0, 236.0, 128.0, 0.0, 0.0, 0.0, 1.6776146574195504E9, 0.0, 2023-02-28 12:04:17.419
59.0, 27640.636580066275, -4255.638033823733, 15374.558016605142, -2823.964097972405, 15478.2030556444, 7831.112483872472, -187500.02235174447, -187500.02235174447, -0.186, -0.778, -0.624, 192.0, 0.0, 0.0, 0.0, 0.0, 0.0, 0.0, 0.0, 0.0, 0.0, 1.6776146574236202E9, 0.0, 2023-02-28 12:04:17.423
60.0, 27456.234688309993, -4254.341632645325, 14233.635572628447, -2813.4364263339553, 14878.237530975048, 7339.128236666708, -187500.02235174447, -187500.02235174447, -0.186, -0.778, -0.624, 192.0, 0.0, 0.0, 0.0, 0.0, 0.0, 0.0, 0.0, 0.0, 0.0, 1.677614657428615E9, 0.0, 2023-02-28 12:04:17.428
61.0, 27449.976199862507, -4254.587501834333, 14001.646816926816, -2819.359638614612, 14749.53618640139, 7366.777344557923, -187500.02235174447, -187500.02235174447, -0.186, -0.778, -0.624, 192.0, 0.0, 0.0, 0.0, 0.0, 0.0, 0.0, 0.0, 0.0, 0.0, 1.677614657432681E9, 0.0, 2023-02-28 12:04:17.432
62.0, 27641.821222522405, -4252.464086111079, 15110.405100632323, -2830.446103864444, 15329.295734083145, 7865.60122556701, -187500.02235174447, -187500.02235174447, -0.186, -0.778, -0.624, 192.0, 0.0, 0.0, 0.0, 0.0, 0.0, 0.0, 0.0, 0.0, 0.0, 1.6776146574367032E9, 0.0, 2023-02-28 12:04:17.436
63.0, 27672.71133335964, -4249.9830424765405, 15490.742384283827, -2824.969926472894, 15533.590678404651, 7905.141461508449, -187500.02235174447, -187500.02235174447, -0.186, -0.778, -0.624, 192.0, 0.0, 0.0, 0.0, 0.0, 0.0, 0.0, 0.0, 0.0, 0.0, 1.677614657440586E9, 0.0, 2023-02-28 12:04:17.440
64.0, 27486.856578213763, -4249.0442692094175, 14426.419368555471, -2812.028266433271, 14981.994328736584, 7409.893859612211, -187500.02235174447, -187500.02235174447, -0.186, -0.778, -0.624, 192.0, 0.0, 0.0, 0.0, 0.0, 0.0, 0.0, 0.0, 0.0, 0.0, 1.6776146574436762E9, 0.0, 2023-02-28 12:04:17.443
65.0, 27440.29789451336, -4251.212388421582, 13916.12904264081, -2815.179862401469, 14703.782165501378, 7312.462605531527, -187500.02235174447, -187500.02235174447, -0.186, -0.778, -0.624, 192.0, 0.0, 0.0, 0.0, 0.0, 0.0, 0.0, 0.0, 0.0, 0.0, 1.6776146574476535E9, 0.0, 2023-02-28 12:04:17.447
66.0, 27622.486963568565, -4254.31928090087, 14903.025615575983, -2827.60743231862, 15214.921857705338, 7792.73453864271, -187500.02235174447, -187500.02235174447, -0.186, -0.778, -0.624, 192.0, 0.0, 0.0, 0.0, 0.0, 0.0, 0.0, 0.0, 0.0, 0.0, 1.6776146574518108E9, 0.0, 2023-02-28 12:04:17.451
67.0, 27697.611176682854, -4253.291100655925, 15555.674201926495, -2826.288679395757, 15563.2737950413, 7958.629185989998, -187500.02235174447, -187500.02235174447, -0.186, -0.778, -0.624, 192.0, 0.0, 0.0, 0.0, 0.0, 0.0, 0.0, 0.0, 0.0, 0.0, 1.6776146574556875E9, 0.0, 2023-02-28 12:04:17.455
68.0, 27524.11693622076, -4252.732307044543, 14640.392618226126, -2813.771702500785, 15090.467344578188, 7497.155069965729, -187500.02235174447, -187500.02235174447, -0.184, -0.778, -0.628, 192.0, 250.0, 64.0, 231.0, 176.0, 236.0, 96.0, 0.0, 0.0, 0.0, 1.6776146574606774E9, 0.0, 2023-02-28 12:04:17.460
69.0, 27417.744984357952, -4253.827542522853, 13885.305987036943, -2814.6881240234525, 14691.220485117494, 7274.10701204622, -187500.02235174447, -187500.02235174447, -0.184, -0.778, -0.628, 192.0, 0.0, 0.0, 0.0, 0.0, 0.0, 0.0, 0.0, 0.0, 0.0, 1.6776146574646547E9, 0.0, 2023-02-28 12:04:17.464
70.0, 27573.424884489166, -4253.55932158939, 14687.6665577491, -2827.2721561517906, 15109.063995965005, 7697.247886329638, -187500.02235174447, -187500.02235174447, -0.184, -0.778, -0.628, 192.0, 0.0, 0.0, 0.0, 0.0, 0.0, 0.0, 0.0, 0.0, 0.0, 1.6776146574677532E9, 0.0, 2023-02-28 12:04:17.467
71.0, 27694.280766759013, -4251.190036677127, 15562.98322236338, -2828.7250195413853, 15574.092039357667, 7983.551381057666, -187500.02235174447, -187500.02235174447, -0.184, -0.778, -0.628, 192.0, 0.0, 0.0, 0.0, 0.0, 0.0, 0.0, 0.0, 0.0, 0.0, 1.6776146574716542E9, 0.0, 2023-02-28 12:04:17.471
72.0, 27547.318046965367, -4248.530179086945, 14858.947975510118, -2816.0739321796814, 15208.864534957951, 7589.288960610505, -187500.02235174447, -187500.02235174447, -0.184, -0.778, -0.628, 192.0, 0.0, 0.0, 0.0, 0.0, 0.0, 0.0, 0.0, 0.0, 0.0, 1.6776146574756663E9, 0.0, 2023-02-28 12:04:17.475
73.0, 27407.37377493069, -4250.050097709906, 13907.434214047697, -2812.989391444849, 14704.7209387685, 7261.947663062533, -187500.02235174447, -187500.02235174447, -0.184, -0.778, -0.628, 192.0, 0.0, 0.0, 0.0, 0.0, 0.0, 0.0, 0.0, 0.0, 0.0, 1.6776146574796884E9, 0.0, 2023-02-28 12:04:17.479
74.0, 27546.200459742602, -4253.134638444739, 14471.05580223272, -2825.7745892732846, 14988.275168928525, 7608.6008678198905, -187500.02235174447, -187500.02235174447, -0.184, -0.778, -0.628, 192.0, 0.0, 0.0, 0.0, 0.0, 0.0, 0.0, 0.0, 0.0, 0.0, 1.6776146574837666E9, 0.0, 2023-02-28 12:04:17.483
75.0, 27696.80651388246, -4252.575844833355, 15511.551858371718, -2830.89313875355, 15538.664524396007, 7989.519296827233, -187500.02235174447, -187500.02235174447, -0.184, -0.778, -0.628, 192.0, 0.0, 0.0, 0.0, 0.0, 0.0, 0.0, 0.0, 0.0, 0.0, 1.677614657488747E9, 0.0, 2023-02-28 12:04:17.488
76.0, 27577.89523338023, -4250.295966898914, 15070.93191992425, -2819.314935125701, 15316.287018810157, 7685.267351301593, -187500.02235174447, -187500.02235174447, -0.184, -0.778, -0.628, 192.0, 0.0, 0.0, 0.0, 0.0, 0.0, 0.0, 0.0, 0.0, 0.0, 1.677614657492736E9, 0.0, 2023-02-28 12:04:17.492
77.0, 27405.42917316308, -4250.228911665548, 13985.732374874637, -2812.564708300198, 14739.164976974127, 7274.017605068399, -187500.02235174447, -187500.02235174447, -0.184, -0.778, -0.628, 192.0, 0.0, 0.0, 0.0, 0.0, 0.0, 0.0, 0.0, 0.0, 0.0, 1.6776146574956765E9, 0.0, 2023-02-28 12:04:17.495
78.0, 27479.659316499154, -4255.727440801554, 14270.426544001884, -2823.7182287833966, 14885.457144434113, 7510.275543960995, -187500.02235174447, -187500.02235174447, -0.186, -0.768, -0.626, 192.0, 250.0, 48.0, 232.0, 0.0, 236.0, 112.0, 0.0, 0.0, 0.0, 1.6776146574996588E9, 0.0, 2023-02-28 12:04:17.499
79.0, 27655.724007573608, -4260.421307137169, 15406.118679776035, -2833.5753480881867, 15483.679233035951, 7959.2103313458365, -187500.02235174447, -187500.02235174447, -0.186, -0.768, -0.626, 192.0, 0.0, 0.0, 0.0, 0.0, 0.0, 0.0, 0.0, 0.0, 0.0, 1.6776146575036795E9, 0.0, 2023-02-28 12:04:17.503
80.0, 27603.778553459473, -4258.364946647281, 15257.278413448146, -2823.1147316831034, 15417.920400848438, 7770.20398023176, -187500.02235174447, -187500.02235174447, -0.186, -0.768, -0.626, 192.0, 0.0, 0.0, 0.0, 0.0, 0.0, 0.0, 0.0, 0.0, 0.0, 1.677614657507682E9, 0.0, 2023-02-28 12:04:17.507
81.0, 27417.18619074657, -4259.236664681037, 14105.69418736627, -2814.6657722789973, 14819.251277357493, 7296.078776845787, -187500.02235174447, -187500.02235174447, -0.186, -0.768, -0.626, 192.0, 0.0, 0.0, 0.0, 0.0, 0.0, 0.0, 0.0, 0.0, 0.0, 1.6776146575117323E9, 0.0, 2023-02-28 12:04:17.511
82.0, 27455.027694109405, -4261.002452493007, 14095.926475039301, -2823.248842149835, 14802.666282971655, 7418.409874249683, -187500.02235174447, -187500.02235174447, -0.186, -0.768, -0.626, 192.0, 0.0, 0.0, 0.0, 0.0, 0.0, 0.0, 0.0, 0.0, 0.0, 1.6776146575167308E9, 0.0, 2023-02-28 12:04:17.516
83.0, 27641.865926011316, -4264.243455439027, 15245.811968542574, -2834.111789955114, 15408.487964688298, 7907.488394676256, -187500.02235174447, -187500.02235174447, -0.186, -0.768, -0.626, 192.0, 0.0, 0.0, 0.0, 0.0, 0.0, 0.0, 0.0, 0.0, 0.0, 1.6776146575207524E9, 0.0, 2023-02-28 12:04:17.520
84.0, 27636.56856257541, -4261.114211215283, 15403.928208819416, -2827.2945078962457, 15496.911465753492, 7847.496312558212, -187500.02235174447, -187500.02235174447, -0.186, -0.768, -0.626, 192.0, 0.0, 0.0, 0.0, 0.0, 0.0, 0.0, 0.0, 0.0, 0.0, 1.677614657523685E9, 0.0, 2023-02-28 12:04:17.523
85.0, 27438.755624145942, -4258.722574558566, 14272.237035302764, -2815.6939525239413, 14903.115022553806, 7351.399344372671, -187500.02235174447, -187500.02235174447, -0.186, -0.768, -0.626, 192.0, 0.0, 0.0, 0.0, 0.0, 0.0, 0.0, 0.0, 0.0, 0.0, 1.6776146575277605E9, 0.0, 2023-02-28 12:04:17.527
86.0, 27420.360138459226, -4259.102554214305, 13969.035621766523, -2821.1030746821257, 14737.935631029086, 7346.526664081414, -187500.02235174447, -187500.02235174447, -0.186, -0.768, -0.626, 192.0, 0.0, 0.0, 0.0, 0.0, 0.0, 0.0, 0.0, 0.0, 0.0, 1.6776146575317397E9, 0.0, 2023-02-28 12:04:17.531
87.0, 27627.38199560428, -4259.482533870046, 15053.6540214603, -2833.3294788991784, 15303.546524470632, 7842.422466566857, -187500.02235174447, -187500.02235174447, -0.186, -0.768, -0.626, 192.0, 0.0, 0.0, 0.0, 0.0, 0.0, 0.0, 0.0, 0.0, 0.0, 1.677614657535732E9, 0.0, 2023-02-28 12:04:17.535
88.0, 27692.604385924864, -4259.661347825689, 15498.073756465168, -2829.864958508606, 15544.230108765378, 7912.361074967513, -187500.02235174447, -187500.02235174447, -0.188, -0.77, -0.62, 192.0, 250.0, 32.0, 231.0, 240.0, 236.0, 160.0, 0.0, 0.0, 0.0, 1.6776146575397608E9, 0.0, 2023-02-28 12:04:17.539
89.0, 27492.422162583134, -4259.437830381135, 14457.532996837259, -2817.0797606801702, 15001.753270835075, 7421.986153362532, -187500.02235174447, -187500.02235174447, -0.188, -0.77, -0.62, 192.0, 0.0, 0.0, 0.0, 0.0, 0.0, 0.0, 0.0, 0.0, 0.0, 1.6776146575447984E9, 0.0, 2023-02-28 12:04:17.544
90.0, 27412.08999301076, -4258.499057114012, 13880.969748612613, -2818.51027232531, 14691.689871751056, 7290.937875621066, -187500.02235174447, -187500.02235174447, -0.188, -0.77, -0.62, 192.0, 0.0, 0.0, 0.0, 0.0, 0.0, 0.0, 0.0, 0.0, 0.0, 1.6776146575487669E9, 0.0, 2023-02-28 12:04:17.548
91.0, 27576.107093823804, -4257.068545468873, 14828.706065262088, -2830.0437724642484, 15186.177514335814, 7759.385735915392, -187500.02235174447, -187500.02235174447, -0.188, -0.77, -0.62, 192.0, 0.0, 0.0, 0.0, 0.0, 0.0, 0.0, 0.0, 0.0, 0.0, 1.6776146575518005E9, 0.0, 2023-02-28 12:04:17.551
92.0, 27664.262373955535, -4254.520446600967, 15535.781149361272, -2828.412095119011, 15567.632385210085, 7958.070392378616, -187500.02235174447, -187500.02235174447, -0.188, -0.77, -0.62, 192.0, 0.0, 0.0, 0.0, 0.0, 0.0, 0.0, 0.0, 0.0, 0.0, 1.6776146575558352E9, 0.0, 2023-02-28 12:04:17.555
93.0, 27495.618462040242, -4254.654557067699, 14663.906653393109, -2816.029228690771, 15116.395368146344, 7507.168651481707, -187500.02235174447, -187500.02235174447, -0.188, -0.77, -0.62, 192.0, 0.0, 0.0, 0.0, 0.0, 0.0, 0.0, 0.0, 0.0, 0.0, 1.6776146575597963E9, 0.0, 2023-02-28 12:04:17.559
94.0, 27385.826693275776, -4256.50975185749, 13855.667573889206, -2816.409208346511, 14684.805534458821, 7257.901997316122, -187500.02235174447, -187500.02235174447, -0.188, -0.77, -0.62, 192.0, 0.0, 0.0, 0.0, 0.0, 0.0, 0.0, 0.0, 0.0, 0.0, 1.6776146575637596E9, 0.0, 2023-02-28 12:04:17.563
95.0, 27542.802994585396, -4260.51071411499, 14605.389786409116, -2830.51315909781, 15078.755030483608, 7664.971967336174, -187500.02235174447, -187500.02235174447, -0.188, -0.77, -0.62, 192.0, 0.0, 0.0, 0.0, 0.0, 0.0, 0.0, 0.0, 0.0, 0.0, 1.6776146575678046E9, 0.0, 2023-02-28 12:04:17.567
96.0, 27677.89693807327, -4260.287196670437, 15526.683989367963, -2834.067086466204, 15568.07942009919, 7971.3026250961575, -187500.02235174447, -187500.02235174447, -0.188, -0.77, -0.62, 192.0, 0.0, 0.0, 0.0, 0.0, 0.0, 0.0, 0.0, 0.0, 0.0, 1.677614657571802E9, 0.0, 2023-02-28 12:04:17.571
97.0, 27542.802994585396, -4257.426173380158, 14880.383298442757, -2821.3936473600447, 15230.344561379501, 7596.709739769667, -187500.02235174447, -187500.02235174447, -0.188, -0.77, -0.62, 192.0, 0.0, 0.0, 0.0, 0.0, 0.0, 0.0, 0.0, 0.0, 0.0, 1.6776146575767777E9, 0.0, 2023-02-28 12:04:17.576
98.0, 27395.66146083611, -4260.153086203705, 13889.239894061076, -2817.0350571912595, 14701.949322456041, 7247.396677422128, -187500.02235174447, -187500.02235174447, -0.188, -0.776, -0.622, 192.0, 250.0, 32.0, 231.0, 192.0, 236.0, 144.0, 0.0, 0.0, 0.0, 1.6776146575798323E9, 0.0, 2023-02-28 12:04:17.579
99.0, 27497.29484287439, -4263.617606594277, 14386.745022147301, -2828.903833497028, 14957.34035460238, 7571.027585390519, -187500.02235174447, -187500.02235174447, -0.188, -0.776, -0.622, 192.0, 0.0, 0.0, 0.0, 0.0, 0.0, 0.0, 0.0, 0.0, 0.0, 1.6776146575838385E9, 0.0, 2023-02-28 12:04:17.583
100.0, 27660.753150076052, -4262.790592049431, 15456.611270500574, -2834.5364730997653, 15518.994989275336, 7971.727308240808, -187500.02235174447, -187500.02235174447, -0.188, -0.776, -0.622, 192.0, 0.0, 0.0, 0.0, 0.0, 0.0, 0.0, 0.0, 0.0, 0.0, 1.6776146575878096E9, 0.0, 2023-02-28 12:04:17.587
101.0, 27566.674657663665, -4258.722574558566, 15081.79486772953, -2821.7736270157848, 15328.13344337147, 7693.872772916887, -187500.02235174447, -187500.02235174447, -0.188, -0.776, -0.622, 192.0, 0.0, 0.0, 0.0, 0.0, 0.0, 0.0, 0.0, 0.0, 0.0, 1.677614657591905E9, 0.0, 2023-02-28 12:04:17.591
102.0, 27394.767391057896, -4255.07924021235, 13972.254272968088, -2812.6541152780196, 14743.724732843011, 7264.9204450750885, -187500.02235174447, -187500.02235174447, -0.188, -0.776, -0.622, 192.0, 0.0, 0.0, 0.0, 0.0, 0.0, 0.0, 0.0, 0.0, 0.0, 1.6776146575958493E9, 0.0, 2023-02-28 12:04:17.595
103.0, 27462.940211646583, -4256.554455346401, 14189.37911860694, -2822.7124002829078, 14849.515539349979, 7480.14539243524, -187500.02235174447, -187500.02235174447, -0.188, -0.776, -0.622, 192.0, 0.0, 0.0, 0.0, 0.0, 0.0, 0.0, 0.0, 0.0, 0.0, 1.6776146576008801E9, 0.0, 2023-02-28 12:04:17.600
104.0, 27651.387769149278, -4255.816847779375, 15335.442463808355, -2831.742505042852, 15454.331392566133, 7944.793456172163, -187500.02235174447, -187500.02235174447, -0.188, -0.776, -0.622, 192.0, 0.0, 0.0, 0.0, 0.0, 0.0, 0.0, 0.0, 0.0, 0.0, 1.6776146576048715E9, 0.0, 2023-02-28 12:04:17.604
105.0, 27613.501562297533, -4255.280405912448, 15258.328945437544, -2823.3606008721117, 15429.833880643117, 7781.871590837431, -187500.02235174447, -187500.02235174447, -0.188, -0.776, -0.622, 192.0, 0.0, 0.0, 0.0, 0.0, 0.0, 0.0, 0.0, 0.0, 0.0, 1.6776146576078117E9, 0.0, 2023-02-28 12:04:17.607
106.0, 27417.633225635676, -4257.157952446693, 14105.56007689954, -2814.1740339009802, 14822.112300647772, 7303.901887405144, -187500.02235174447, -187500.02235174447, -0.188, -0.776, -0.622, 192.0, 0.0, 0.0, 0.0, 0.0, 0.0, 0.0, 0.0, 0.0, 0.0, 1.6776146576119008E9, 0.0, 2023-02-28 12:04:17.611
107.0, 27437.05689156734, -4259.594292592322, 14028.82653818447, -2822.7794555162736, 14769.764515133444, 7396.572219916848, -187500.02235174447, -187500.02235174447, -0.188, -0.776, -0.622, 192.0, 0.0, 0.0, 0.0, 0.0, 0.0, 0.0, 0.0, 0.0, 0.0, 1.677614657615807E9, 0.0, 2023-02-28 12:04:17.615
108.0, 27636.210934664123, -4258.275539669459, 15173.839351396484, -2834.000031232838, 15370.020612480714, 7892.199801468826, -187500.02235174447, -187500.02235174447, -0.188, -0.776, -0.622, 192.0, 0.0, 0.0, 0.0, 0.0, 0.0, 0.0, 0.0, 0.0, 0.0, 1.6776146576199188E9, 0.0, 2023-02-28 12:04:17.619
109.0, 27640.480117855088, -4256.800324535408, 15400.307226217656, -2826.4004381180334, 15504.041672234736, 7864.774211022164, -187500.02235174447, -187500.02235174447, -0.186, -0.768, -0.62, 192.0, 250.0, 48.0, 232.0, 0.0, 236.0, 160.0, 0.0, 0.0, 0.0, 1.6776146576238885E9, 0.0, 2023-02-28 12:04:17.623
110.0, 27441.81781313632, -4254.229873923048, 14281.40125052944, -2813.3917228450446, 14918.738891928066, 7369.8395335483, -187500.02235174447, -187500.02235174447, -0.186, -0.768, -0.62, 192.0, 0.0, 0.0, 0.0, 0.0, 0.0, 0.0, 0.0, 0.0, 0.0, 1.6776146576279852E9, 0.0, 2023-02-28 12:04:17.627
111.0, 27423.578789660787, -4251.949995988607, 13913.670350750728, -2817.504443824821, 14715.829755762787, 7338.815312244334, -187500.02235174447, -187500.02235174447, -0.186, -0.768, -0.62, 192.0, 0.0, 0.0, 0.0, 0.0, 0.0, 0.0, 0.0, 0.0, 0.0, 1.6776146576328967E9, 0.0, 2023-02-28 12:04:17.632
112.0, 27621.59289379035, -4255.526275101456, 14979.043898468484, -2831.094304453648, 15274.489256678733, 7827.759722204176, -187500.02235174447, -187500.02235174447, -0.186, -0.768, -0.62, 192.0, 0.0, 0.0, 0.0, 0.0, 0.0, 0.0, 0.0, 0.0, 0.0, 1.6776146576359224E9, 0.0, 2023-02-28 12:04:17.635
113.0, 27671.95137404816, -4255.772144290465, 15491.63645406204, -2827.2721561517906, 15552.232033280377, 7924.3416099955575, -187500.02235174447, -187500.02235174447, -0.186, -0.768, -0.62, 192.0, 0.0, 0.0, 0.0, 0.0, 0.0, 0.0, 0.0, 0.0, 0.0, 1.6776146576398735E9, 0.0, 2023-02-28 12:04:17.639
114.0, 27476.038333897395, -4253.335804144836, 14484.288034950261, -2813.7269990118743, 15022.361579222868, 7440.359287304794, -187500.02235174447, -187500.02235174447, -0.186, -0.768, -0.62, 192.0, 0.0, 0.0, 0.0, 0.0, 0.0, 0.0, 0.0, 0.0, 0.0, 1.677614657643857E9, 0.0, 2023-02-28 12:04:17.643
115.0, 27393.940376513052, -4253.089934955828, 13853.208881999122, -2815.448083334933, 14679.6646332341, 7283.070061572798, -187500.02235174447, -187500.02235174447, -0.186, -0.768, -0.62, 192.0, 0.0, 0.0, 0.0, 0.0, 0.0, 0.0, 0.0, 0.0, 0.0, 1.6776146576489277E9, 0.0, 2023-02-28 12:04:17.648
116.0, 27560.259707004992, -4255.436868123636, 14765.942366831587, -2828.546205585743, 15153.52161568661, 7740.789084528576, -187500.02235174447, -187500.02235174447, -0.186, -0.768, -0.62, 192.0, 0.0, 0.0, 0.0, 0.0, 0.0, 0.0, 0.0, 0.0, 0.0, 1.6776146576528735E9, 0.0, 2023-02-28 12:04:17.652
117.0, 27659.85908029784, -4254.989833234529, 15531.199041747934, -2828.4344468634663, 15566.425391009498, 7962.71955522532, -187500.02235174447, -187500.02235174447, -0.186, -0.768, -0.62, 192.0, 0.0, 0.0, 0.0, 0.0, 0.0, 0.0, 0.0, 0.0, 0.0, 1.6776146576559772E9, 0.0, 2023-02-28 12:04:17.655
118.0, 27508.381308124222, -4254.74396404552, 14707.269037636404, -2815.5598420572096, 15144.223289993202, 7528.760436625534, -187500.02235174447, -187500.02235174447, -0.186, -0.768, -0.62, 192.0, 0.0, 0.0, 0.0, 0.0, 0.0, 0.0, 0.0, 0.0, 0.0, 1.6776146576599565E9, 0.0, 2023-02-28 12:04:17.659
119.0, 27386.206672931516, -4258.9684437475735, 13852.761847110016, -2815.0010484458267, 14684.872589692188, 7254.05749726981, -187500.02235174447, -187500.02235174447, -0.188, -0.766, -0.616, 192.0, 250.0, 32.0, 232.0, 16.0, 236.0, 192.0, 0.0, 0.0, 0.0, 1.677614657662998E9, 0.0, 2023-02-28 12:04:17.662
120.0, 27517.5455233509, -4261.203618193104, 14551.969117160932, -2828.166225930003, 15042.634611443831, 7644.162493248284, -187500.02235174447, -187500.02235174447, -0.188, -0.766, -0.616, 192.0, 0.0, 0.0, 0.0, 0.0, 0.0, 0.0, 0.0, 0.0, 0.0, 1.6776146576679611E9, 0.0, 2023-02-28 12:04:17.667
121.0, 27656.059283740437, -4262.7235368160655, 15516.40218691852, -2832.5695195876983, 15553.193158291955, 7974.498924553267, -187500.02235174447, -187500.02235174447, -0.188, -0.766, -0.616, 192.0, 0.0, 0.0, 0.0, 0.0, 0.0, 0.0, 0.0, 0.0, 0.0, 1.6776146576718872E9, 0.0, 2023-02-28 12:04:17.671
122.0, 27535.851602059796, -4259.884865270241, 14926.472595509602, -2820.1643014150027, 15253.188044212824, 7618.457987124681, -187500.02235174447, -187500.02235174447, -0.188, -0.766, -0.616, 192.0, 0.0, 0.0, 0.0, 0.0, 0.0, 0.0, 0.0, 0.0, 0.0, 1.6776146576760125E9, 0.0, 2023-02-28 12:04:17.676
123.0, 27390.52055961139, -4254.8557227677975, 13903.545010512473, -2813.7269990118743, 14711.314703382815, 7251.263529212896, -187500.02235174447, -187500.02235174447, -0.188, -0.766, -0.616, 192.0, 0.0, 0.0, 0.0, 0.0, 0.0, 0.0, 0.0, 0.0, 0.0, 1.6776146576799104E9, 0.0, 2023-02-28 12:04:17.679
124.0, 27494.053839928372, -4255.190998934627, 14340.253393680263, -2824.634650306064, 14934.139243857771, 7551.246291547573, -187500.02235174447, -187500.02235174447, -0.188, -0.766, -0.616, 192.0, 0.0, 0.0, 0.0, 0.0, 0.0, 0.0, 0.0, 0.0, 0.0, 1.6776146576840231E9, 0.0, 2023-02-28 12:04:17.684
125.0, 27663.435359410687, -4256.599158835311, 15438.998095869792, -2832.1671881875027, 15513.45175665042, 7968.598064017066, -187500.02235174447, -187500.02235174447, -0.188, -0.766, -0.616, 192.0, 0.0, 0.0, 0.0, 0.0, 0.0, 0.0, 0.0, 0.0, 0.0, 1.6776146576879296E9, 0.0, 2023-02-28 12:04:17.687
126.0, 27593.541454498943, -4254.721612301065, 15132.332161942979, -2821.348943871134, 15362.152798432446, 7714.034046415573, -187500.02235174447, -187500.02235174447, -0.188, -0.766, -0.616, 192.0, 0.0, 0.0, 0.0, 0.0, 0.0, 0.0, 0.0, 0.0, 0.0, 1.6776146576910033E9, 0.0, 2023-02-28 12:04:17.691
127.0, 27416.537990157365, -4251.637071566233, 14006.899476873814, -2812.631763533564, 14765.472980198025, 7271.156581778119, -187500.02235174447, -187500.02235174447, -0.188, -0.766, -0.616, 192.0, 0.0, 0.0, 0.0, 0.0, 0.0, 0.0, 0.0, 0.0, 0.0, 1.6776146576960006E9, 0.0, 2023-02-28 12:04:17.696
128.0, 27466.29297331488, -4253.045231466917, 14158.846635680991, -2822.8241590051844, 14834.159890909183, 7460.028822425464, -187500.02235174447, -187500.02235174447, -0.188, -0.766, -0.616, 192.0, 0.0, 0.0, 0.0, 0.0, 0.0, 0.0, 0.0, 0.0, 0.0, 1.6776146576999843E9, 0.0, 2023-02-28 12:04:17.699
129.0, 27651.208955193637, -4256.599158835311, 15316.868164165995, -2834.089438210659, 15446.687095962418, 7929.840139131563, -187500.02235174447, -187500.02235174447, -0.184, -0.768, -0.62, 192.0, 250.0, 64.0, 232.0, 0.0, 236.0, 160.0, 0.0, 0.0, 0.0, 1.6776146577040129E9, 0.0, 2023-02-28 12:04:17.704
130.0, 27625.14682115875, -4255.190998934627, 15311.391986774444, -2826.3780863735783, 15452.409142542976, 7801.339960258003, -187500.02235174447, -187500.02235174447, -0.184, -0.768, -0.62, 192.0, 0.0, 0.0, 0.0, 0.0, 0.0, 0.0, 0.0, 0.0, 0.0, 1.6776146577079816E9, 0.0, 2023-02-28 12:04:17.707
131.0, 27431.67012115361, -4252.307623899892, 14156.276185068631, -2814.5987170456315, 14848.733228294042, 7318.698742234557, -187500.02235174447, -187500.02235174447, -0.184, -0.768, -0.62, 192.0, 0.0, 0.0, 0.0, 0.0, 0.0, 0.0, 0.0, 0.0, 0.0, 1.6776146577119644E9, 0.0, 2023-02-28 12:04:17.711
132.0, 27435.984007833482, -4250.564187832379, 14010.900439131314, -2820.387818859556, 14762.030811551907, 7386.044548278398, -187500.02235174447, -187500.02235174447, -0.184, -0.768, -0.62, 192.0, 0.0, 0.0, 0.0, 0.0, 0.0, 0.0, 0.0, 0.0, 0.0, 1.6776146577159712E9, 0.0, 2023-02-28 12:04:17.715
133.0, 27633.036986951472, -4251.435905866135, 15147.084313283482, -2832.4577608654217, 15357.861263497027, 7884.42139439838, -187500.02235174447, -187500.02235174447, -0.184, -0.768, -0.62, 192.0, 0.0, 0.0, 0.0, 0.0, 0.0, 0.0, 0.0, 0.0, 0.0, 1.6776146577189724E9, 0.0, 2023-02-28 12:04:17.718
134.0, 27650.918382515716, -4251.234740166037, 15440.227441814834, -2827.2721561517906, 15527.600410890629, 7878.676996073365, -187500.02235174447, -187500.02235174447, -0.184, -0.768, -0.62, 192.0, 0.0, 0.0, 0.0, 0.0, 0.0, 0.0, 0.0, 0.0, 0.0, 1.677614657722973E9, 0.0, 2023-02-28 12:04:17.722
135.0, 27456.972295877018, -4252.955824489096, 14339.180509946407, -2816.118635668592, 14948.801988220453, 7378.377899930228, -187500.02235174447, -187500.02235174447, -0.184, -0.768, -0.62, 192.0, 0.0, 0.0, 0.0, 0.0, 0.0, 0.0, 0.0, 0.0, 0.0, 1.677614657728021E9, 0.0, 2023-02-28 12:04:17.728
136.0, 27416.560341901823, -4254.118115200772, 13910.652865249262, -2820.7454467708408, 14709.638322548668, 7317.424692800605, -187500.02235174447, -187500.02235174447, -0.184, -0.768, -0.62, 192.0, 0.0, 0.0, 0.0, 0.0, 0.0, 0.0, 0.0, 0.0, 0.0, 1.6776146577319431E9, 0.0, 2023-02-28 12:04:17.731
137.0, 27611.400498318733, -4252.911121000186, 14950.210148121138, -2832.6589265655193, 15256.518454136665, 7809.096015583995, -187500.02235174447, -187500.02235174447, -0.184, -0.768, -0.62, 192.0, 0.0, 0.0, 0.0, 0.0, 0.0, 0.0, 0.0, 0.0, 0.0, 1.677614657736072E9, 0.0, 2023-02-28 12:04:17.736
138.0, 27685.451827699166, -4251.368850632769, 15524.02413177778, -2829.194406174947, 15570.068725355713, 7935.942165367862, -187500.02235174447, -187500.02235174447, -0.184, -0.768, -0.62, 192.0, 0.0, 0.0, 0.0, 0.0, 0.0, 0.0, 0.0, 0.0, 0.0, 1.6776146577399776E9, 0.0, 2023-02-28 12:04:17.739
139.0, 27494.411467839658, -4250.005394220995, 14548.750465959367, -2816.2303943908687, 15060.158379096792, 7458.017165424486, -187500.02235174447, -187500.02235174447, -0.192, -0.772, -0.624, 192.0, 250.0, 0.0, 231.0, 224.0, 236.0, 128.0, 0.0, 0.0, 0.0, 1.6776146577430837E9, 0.0, 2023-02-28 12:04:17.743
140.0, 27400.176513216084, -4249.468952354068, 13859.93675708017, -2816.6774292799746, 14692.874514207188, 7273.235294012463, -187500.02235174447, -187500.02235174447, -0.192, -0.772, -0.624, 192.0, 0.0, 0.0, 0.0, 0.0, 0.0, 0.0, 0.0, 0.0, 0.0, 1.6776146577469933E9, 0.0, 2023-02-28 12:04:17.746
141.0, 27569.669791420674, -4250.497132599012, 14730.760721058932, -2829.3061648972234, 15143.530385915088, 7720.359590096426, -187500.02235174447, -187500.02235174447, -0.192, -0.772, -0.624, 192.0, 0.0, 0.0, 0.0, 0.0, 0.0, 0.0, 0.0, 0.0, 0.0, 1.6776146577520669E9, 0.0, 2023-02-28 12:04:17.752
142.0, 27685.652993399264, -4250.944167488118, 15549.281603012278, -2830.468455608899, 15581.13283886109, 7966.452296549356, -187500.02235174447, -187500.02235174447, -0.192, -0.772, -0.624, 192.0, 0.0, 0.0, 0.0, 0.0, 0.0, 0.0, 0.0, 0.0, 0.0, 1.677614657755968E9, 0.0, 2023-02-28 12:04:17.755
143.0, 27528.989616512015, -4249.55835933189, 14770.770343633932, -2816.9903537023492, 15177.706203187252, 7546.172445556217, -187500.02235174447, -187500.02235174447, -0.192, -0.772, -0.624, 192.0, 0.0, 0.0, 0.0, 0.0, 0.0, 0.0, 0.0, 0.0, 0.0, 1.6776146577600398E9, 0.0, 2023-02-28 12:04:17.760
144.0, 27393.02395499038, -4251.838237266331, 13867.134018794779, -2814.1069786676144, 14700.921142211098, 7247.843712311234, -187500.02235174447, -187500.02235174447, -0.192, -0.772, -0.624, 192.0, 0.0, 0.0, 0.0, 0.0, 0.0, 0.0, 0.0, 0.0, 0.0, 1.6776146577639818E9, 0.0, 2023-02-28 12:04:17.763
145.0, 27516.606750083778, -4255.816847779375, 14510.841907363167, -2827.0486387072374, 15031.011704327073, 7620.55905110348, -187500.02235174447, -187500.02235174447, -0.192, -0.772, -0.624, 192.0, 0.0, 0.0, 0.0, 0.0, 0.0, 0.0, 0.0, 0.0, 0.0, 1.6776146577681262E9, 0.0, 2023-02-28 12:04:17.768
146.0, 27666.452844912154, -4254.74396404552, 15515.105785740112, -2831.4295806204773, 15562.044449096258, 7977.762279243741, -187500.02235174447, -187500.02235174447, -0.192, -0.772, -0.624, 192.0, 0.0, 0.0, 0.0, 0.0, 0.0, 0.0, 0.0, 0.0, 0.0, 1.6776146577710423E9, 0.0, 2023-02-28 12:04:17.771
147.0, 27556.862241847783, -4250.653594810199, 14985.347090404879, -2818.219699647391, 15293.64470167693, 7642.12848450285, -187500.02235174447, -187500.02235174447, -0.192, -0.772, -0.624, 192.0, 0.0, 0.0, 0.0, 0.0, 0.0, 0.0, 0.0, 0.0, 0.0, 1.6776146577750647E9, 0.0, 2023-02-28 12:04:17.775
148.0, 27392.308699167814, -4253.6040250783, 13931.261173637055, -2813.6822955229636, 14732.571212359813, 7251.53175014636, -187500.02235174447, -187500.02235174447, -0.192, -0.772, -0.624, 192.0, 0.0, 0.0, 0.0, 0.0, 0.0, 0.0, 0.0, 0.0, 0.0, 1.677614657779003E9, 0.0, 2023-02-28 12:04:17.779
149.0, 27478.497025787477, -4257.761449546987, 14306.368149086018, -2825.79694101774, 14917.062511093916, 7526.905241835742, -187500.02235174447, -187500.02235174447, -0.192, -0.768, -0.63, 192.0, 250.0, 0.0, 232.0, 0.0, 236.0, 80.0, 0.0, 0.0, 0.0, 1.6776146577841113E9, 0.0, 2023-02-28 12:04:17.784
150.0, 27660.06024599794, -4256.554455346401, 15427.084616075113, -2832.860092265617, 15505.248666435322, 7963.121886625516, -187500.02235174447, -187500.02235174447, -0.192, -0.768, -0.63, 192.0, 0.0, 0.0, 0.0, 0.0, 0.0, 0.0, 0.0, 0.0, 0.0, 1.677614657788028E9, 0.0, 2023-02-28 12:04:17.788
151.0, 27595.37429754428, -4250.407725621191, 15186.512790502644, -2820.767798515296, 15385.867999299528, 7740.789084528576, -187500.02235174447, -187500.02235174447, -0.192, -0.768, -0.63, 192.0, 0.0, 0.0, 0.0, 0.0, 0.0, 0.0, 0.0, 0.0, 0.0, 1.677614657792084E9, 0.0, 2023-02-28 12:04:17.792
152.0, 27407.887865053162, -4248.50782734249, 14043.288116847054, -2811.4918245663434, 14786.55067521938, 7285.05936682932, -187500.02235174447, -187500.02235174447, -0.192, -0.768, -0.63, 192.0, 0.0, 0.0, 0.0, 0.0, 0.0, 0.0, 0.0, 0.0, 0.0, 1.6776146577960167E9, 0.0, 2023-02-28 12:04:17.796
153.0, 27456.301743543358, -4248.485475598035, 14123.441472463785, -2819.069065936693, 14825.196841382605, 7443.823807695367, -187500.02235174447, -187500.02235174447, -0.192, -0.768, -0.63, 192.0, 0.0, 0.0, 0.0, 0.0, 0.0, 0.0, 0.0, 0.0, 0.0, 1.6776146578000169E9, 0.0, 2023-02-28 12:04:17.800
154.0, 27654.204088950646, -4248.083144197839, 15281.641814904431, -2828.8814817525727, 15432.739607422307, 7928.342572253057, -187500.02235174447, -187500.02235174447, -0.192, -0.768, -0.63, 192.0, 0.0, 0.0, 0.0, 0.0, 0.0, 0.0, 0.0, 0.0, 0.0, 1.6776146578030195E9, 0.0, 2023-02-28 12:04:17.803
155.0, 27631.13708867277, -4249.960690732085, 15345.165472646413, -2822.064199693704, 15472.481009063842, 7826.888004170419, -187500.02235174447, -187500.02235174447, -0.192, -0.768, -0.63, 192.0, 0.0, 0.0, 0.0, 0.0, 0.0, 0.0, 0.0, 0.0, 0.0, 1.6776146578070388E9, 0.0, 2023-02-28 12:04:17.807
156.0, 27440.34259800227, -4248.977213976052, 14195.168220420865, -2811.245955377335, 14869.810923315397, 7335.574309298314, -187500.02235174447, -187500.02235174447, -0.192, -0.768, -0.63, 192.0, 0.0, 0.0, 0.0, 0.0, 0.0, 0.0, 0.0, 0.0, 0.0, 1.6776146578110297E9, 0.0, 2023-02-28 12:04:17.811
157.0, 27433.659426410133, -4246.585577319333, 13979.987976549624, -2815.8504147351287, 14750.229090479505, 7369.88423703721, -187500.02235174447, -187500.02235174447, -0.192, -0.768, -0.63, 192.0, 0.0, 0.0, 0.0, 0.0, 0.0, 0.0, 0.0, 0.0, 0.0, 1.677614657816094E9, 0.0, 2023-02-28 12:04:17.816
158.0, 27619.469478067098, -4245.467990096568, 15097.08346093696, -2827.4062666185223, 15338.348190587545, 7866.964681978784, -187500.02235174447, -187500.02235174447, -0.192, -0.768, -0.63, 192.0, 0.0, 0.0, 0.0, 0.0, 0.0, 0.0, 0.0, 0.0, 0.0, 1.6776146578200574E9, 0.0, 2023-02-28 12:04:17.820
159.0, 27646.403330135745, -4243.165760417672, 15459.785218213228, -2822.220661904891, 15540.050332552235, 7896.513688148701, -187500.02235174447, -187500.02235174447, -0.192, -0.764, -0.626, 192.0, 250.0, 0.0, 232.0, 32.0, 236.0, 112.0, 0.0, 0.0, 0.0, 1.6776146578240693E9, 0.0, 2023-02-28 12:04:17.824
160.0, 27451.987856863485, -4239.902405727196, 14384.532199446227, -2809.636629776553, 14979.513285102044, 7400.8637548522665, -187500.02235174447, -187500.02235174447, -0.192, -0.764, -0.626, 192.0, 0.0, 0.0, 0.0, 0.0, 0.0, 0.0, 0.0, 0.0, 0.0, 1.6776146578270836E9, 0.0, 2023-02-28 12:04:17.827
161.0, 27396.667289336598, -4239.768295260465, 13886.1777050707, -2812.4305978334664, 14705.190325402062, 7309.78039619689, -187500.02235174447, -187500.02235174447, -0.192, -0.764, -0.626, 192.0, 0.0, 0.0, 0.0, 0.0, 0.0, 0.0, 0.0, 0.0, 0.0, 1.6776146578310852E9, 0.0, 2023-02-28 12:04:17.831
162.0, 27574.207195545103, -4241.712897028076, 14887.960539813108, -2825.2381474063573, 15226.365950866457, 7792.220448520237, -187500.02235174447, -187500.02235174447, -0.192, -0.764, -0.626, 192.0, 0.0, 0.0, 0.0, 0.0, 0.0, 0.0, 0.0, 0.0, 0.0, 1.677614657835087E9, 0.0, 2023-02-28 12:04:17.835
163.0, 27658.13799597478, -4239.969460960563, 15523.30887595521, -2822.958269471916, 15566.89477764306, 7950.917834152918, -187500.02235174447, -187500.02235174447, -0.192, -0.764, -0.626, 192.0, 0.0, 0.0, 0.0, 0.0, 0.0, 0.0, 0.0, 0.0, 0.0, 1.677614657840089E9, 0.0, 2023-02-28 12:04:17.840
164.0, 27484.621403768233, -4239.500074327001, 14588.64832981209, -2810.217775132391, 15081.191370629236, 7484.682796559668, -187500.02235174447, -187500.02235174447, -0.192, -0.764, -0.626, 192.0, 0.0, 0.0, 0.0, 0.0, 0.0, 0.0, 0.0, 0.0, 0.0, 1.6776146578440728E9, 0.0, 2023-02-28 12:04:17.844
165.0, 27393.538045112855, -4239.365963860269, 13843.843501072348, -2809.703685009919, 14681.497476279435, 7270.351918977728, -187500.02235174447, -187500.02235174447, -0.192, -0.764, -0.626, 192.0, 0.0, 0.0, 0.0, 0.0, 0.0, 0.0, 0.0, 0.0, 0.0, 1.677614657848091E9, 0.0, 2023-02-28 12:04:17.848
166.0, 27560.79614887192, -4240.684716783133, 14664.95718538251, -2822.600641560631, 15107.767594786597, 7701.42766254278, -187500.02235174447, -187500.02235174447, -0.192, -0.764, -0.626, 192.0, 0.0, 0.0, 0.0, 0.0, 0.0, 0.0, 0.0, 0.0, 0.0, 1.6776146578511088E9, 0.0, 2023-02-28 12:04:17.851
167.0, 27680.020353796524, -4242.338745872825, 15533.993009804846, -2825.5287200842763, 15574.762591691328, 7978.566942044133, -187500.02235174447, -187500.02235174447, -0.192, -0.764, -0.626, 192.0, 0.0, 0.0, 0.0, 0.0, 0.0, 0.0, 0.0, 0.0, 0.0, 1.6776146578550713E9, 0.0, 2023-02-28 12:04:17.855
168.0, 27545.708721364586, -4239.120094671261, 14811.517573775956, -2812.765874000296, 15202.002549410172, 7577.487239538103, -187500.02235174447, -187500.02235174447, -0.192, -0.764, -0.626, 192.0, 0.0, 0.0, 0.0, 0.0, 0.0, 0.0, 0.0, 0.0, 0.0, 1.6776146578591492E9, 0.0, 2023-02-28 12:04:17.859
169.0, 27410.726536598988, -4238.382487104236, 13868.318661250909, -2808.675504764975, 14698.976540443486, 7257.477314171471, -187500.02235174447, -187500.02235174447, -0.192, -0.772, -0.63, 192.0, 250.0, 0.0, 231.0, 224.0, 236.0, 80.0, 0.0, 0.0, 0.0, 1.6776146578631082E9, 0.0, 2023-02-28 12:04:17.863
170.0, 27523.625197842743, -4243.009298206484, 14452.43679910145, -2822.645345049542, 14995.092450987393, 7607.907963741775, -187500.02235174447, -187500.02235174447, -0.192, -0.772, -0.63, 192.0, 0.0, 0.0, 0.0, 0.0, 0.0, 0.0, 0.0, 0.0, 0.0, 1.677614657867162E9, 0.0, 2023-02-28 12:04:17.867
171.0, 27687.95522307816, -4245.020955207462, 15492.172895928967, -2829.2391096638576, 15546.93466984447, 7982.880828724007, -187500.02235174447, -187500.02235174447, -0.192, -0.772, -0.63, 192.0, 0.0, 0.0, 0.0, 0.0, 0.0, 0.0, 0.0, 0.0, 0.0, 1.6776146578722117E9, 0.0, 2023-02-28 12:04:17.872
172.0, 27582.11971308228, -4242.182283661638, 15028.664771159265, -2817.482092080366, 15313.381292030967, 7672.213932539694, -187500.02235174447, -187500.02235174447, -0.192, -0.772, -0.63, 192.0, 0.0, 0.0, 0.0, 0.0, 0.0, 0.0, 0.0, 0.0, 0.0, 1.6776146578761644E9, 0.0, 2023-02-28 12:04:17.876
173.0, 27395.03561199136, -4239.902405727196, 13944.80633077697, -2809.971905943383, 14740.439026408081, 7265.613349153203, -187500.02235174447, -187500.02235174447, -0.192, -0.772, -0.63, 192.0, 0.0, 0.0, 0.0, 0.0, 0.0, 0.0, 0.0, 0.0, 0.0, 1.6776146578791575E9, 0.0, 2023-02-28 12:04:17.879
174.0, 27467.701133215563, -4240.595309805311, 14251.874596103979, -2820.387818859556, 14894.464897449601, 7514.924706807698, -187500.02235174447, -187500.02235174447, -0.192, -0.772, -0.63, 192.0, 0.0, 0.0, 0.0, 0.0, 0.0, 0.0, 0.0, 0.0, 0.0, 1.677614657883155E9, 0.0, 2023-02-28 12:04:17.883
175.0, 27649.08553947038, -4240.50590282749, 15390.360699935043, -2829.1720544304912, 15492.642282562529, 7964.172418614915, -187500.02235174447, -187500.02235174447, -0.192, -0.772, -0.63, 192.0, 0.0, 0.0, 0.0, 0.0, 0.0, 0.0, 0.0, 0.0, 0.0, 1.677614657887154E9, 0.0, 2023-02-28 12:04:17.887
176.0, 27593.45204752112, -4237.823693492853, 15220.889773474906, -2818.4655688363996, 15414.500583946776, 7770.1369249983945, -187500.02235174447, -187500.02235174447, -0.192, -0.772, -0.63, 192.0, 0.0, 0.0, 0.0, 0.0, 0.0, 0.0, 0.0, 0.0, 0.0, 1.6776146578911371E9, 0.0, 2023-02-28 12:04:17.891
177.0, 27408.446658664547, -4238.136617915227, 14068.903215992836, -2808.3625803426007, 14810.869373186753, 7300.325608292295, -187500.02235174447, -187500.02235174447, -0.192, -0.772, -0.63, 192.0, 0.0, 0.0, 0.0, 0.0, 0.0, 0.0, 0.0, 0.0, 0.0, 1.6776146578952773E9, 0.0, 2023-02-28 12:04:17.895
178.0, 27448.255115539447, -4240.282385382937, 14081.59900684345, -2817.638554291553, 14808.075405129839, 7432.692638956623, -187500.02235174447, -187500.02235174447, -0.192, -0.772, -0.63, 192.0, 0.0, 0.0, 0.0, 0.0, 0.0, 0.0, 0.0, 0.0, 0.0, 1.6776146579001424E9, 0.0, 2023-02-28 12:04:17.900
179.0, 27640.860097510827, -4244.685679040633, 15244.023828986148, -2829.7531997863293, 15417.316903748144, 7923.536947195166, -187500.02235174447, -187500.02235174447, -0.194, -0.772, -0.624, 192.0, 249.0, 240.0, 231.0, 224.0, 236.0, 128.0, 0.0, 0.0, 0.0, 1.6776146579041648E9, 0.0, 2023-02-28 12:04:17.904
180.0, 27627.717271771107, -4245.915024985674, 15381.107077730547, -2823.338249127656, 15499.794840788227, 7851.519626560167, -187500.02235174447, -187500.02235174447, -0.194, -0.772, -0.624, 192.0, 0.0, 0.0, 0.0, 0.0, 0.0, 0.0, 0.0, 0.0, 0.0, 1.6776146579072435E9, 0.0, 2023-02-28 12:04:17.907
181.0, 27428.786746118876, -4248.083144197839, 14242.598622155027, -2813.8164059896953, 14899.918723096696, 7353.478056607015, -187500.02235174447, -187500.02235174447, -0.194, -0.772, -0.624, 192.0, 0.0, 0.0, 0.0, 0.0, 0.0, 0.0, 0.0, 0.0, 0.0, 1.6776146579112427E9, 0.0, 2023-02-28 12:04:17.911
182.0, 27410.301853454337, -4250.854760510297, 13963.648851352795, -2820.253708392824, 14739.097921740762, 7361.345870655284, -187500.02235174447, -187500.02235174447, -0.194, -0.772, -0.624, 192.0, 0.0, 0.0, 0.0, 0.0, 0.0, 0.0, 0.0, 0.0, 0.0, 1.6776146579151976E9, 0.0, 2023-02-28 12:04:17.915
183.0, 27599.107038868315, -4254.341632645325, 15065.388687299335, -2832.770685287796, 15320.064463623103, 7858.515722574678, -187500.02235174447, -187500.02235174447, -0.194, -0.772, -0.624, 192.0, 0.0, 0.0, 0.0, 0.0, 0.0, 0.0, 0.0, 0.0, 0.0, 1.6776146579192257E9, 0.0, 2023-02-28 12:04:17.919
184.0, 27650.13607145978, -4252.665251811177, 15496.620893075573, -2829.1720544304912, 15559.809274650726, 7916.026761058183, -187500.02235174447, -187500.02235174447, -0.194, -0.772, -0.624, 192.0, 0.0, 0.0, 0.0, 0.0, 0.0, 0.0, 0.0, 0.0, 0.0, 1.677614657923222E9, 0.0, 2023-02-28 12:04:17.923
185.0, 27459.028656366907, -4253.179341933649, 14446.67004903198, -2816.811539746707, 15011.610390139866, 7421.405008006694, -187500.02235174447, -187500.02235174447, -0.194, -0.772, -0.624, 192.0, 0.0, 0.0, 0.0, 0.0, 0.0, 0.0, 0.0, 0.0, 0.0, 1.6776146579281986E9, 0.0, 2023-02-28 12:04:17.928
186.0, 27359.98807668544, -4262.455315882601, 13890.960978384135, -2820.611336304109, 14703.62570329019, 7299.140965836164, -187500.02235174447, -187500.02235174447, -0.194, -0.772, -0.624, 192.0, 0.0, 0.0, 0.0, 0.0, 0.0, 0.0, 0.0, 0.0, 0.0, 1.6776146579321928E9, 0.0, 2023-02-28 12:04:17.932
187.0, 27520.83122978583, -4269.362004919291, 14861.719591822577, -2834.1788451884804, 15207.29991284608, 7771.723898854721, -187500.02235174447, -187500.02235174447, -0.194, -0.772, -0.624, 192.0, 0.0, 0.0, 0.0, 0.0, 0.0, 0.0, 0.0, 0.0, 0.0, 1.6776146579351757E9, 0.0, 2023-02-28 12:04:17.935
188.0, 27601.766896458495, -4274.972292777574, 15557.015306593814, -2834.2011969329355, 15581.155190605545, 7957.198674344859, -187500.02235174447, -187500.02235174447, -0.194, -0.772, -0.624, 192.0, 0.0, 0.0, 0.0, 0.0, 0.0, 0.0, 0.0, 0.0, 0.0, 1.6776146579392145E9, 0.0, 2023-02-28 12:04:17.939
189.0, 27422.86353383822, -4278.392109679236, 14666.119476094185, -2822.310068882712, 15118.652894336332, 7502.0053985125305, -187500.02235174447, -187500.02235174447, -0.192, -0.77, -0.622, 192.0, 250.0, 0.0, 231.0, 240.0, 236.0, 144.0, 0.0, 0.0, 0.0, 1.6776146579432485E9, 0.0, 2023-02-28 12:04:17.943
190.0, 27295.123314276138, -4283.309493459403, 13873.750135153548, -2821.728923526874, 14693.768583985398, 7263.601692152226, -187500.02235174447, -187500.02235174447, -0.192, -0.77, -0.622, 192.0, 0.0, 0.0, 0.0, 0.0, 0.0, 0.0, 0.0, 0.0, 0.0, 1.6776146579472325E9, 0.0, 2023-02-28 12:04:17.947
191.0, 27430.016092063917, -4290.327941218369, 14647.18754854054, -2835.899929511539, 15088.299225366025, 7678.47242098718, -187500.02235174447, -187500.02235174447, -0.192, -0.77, -0.622, 192.0, 0.0, 0.0, 0.0, 0.0, 0.0, 0.0, 0.0, 0.0, 0.0, 1.6776146579511724E9, 0.0, 2023-02-28 12:04:17.951
192.0, 27550.06731153337, -4294.686531387154, 15561.46330374042, -2839.543263857754, 15579.076478371202, 7978.254017621758, -187500.02235174447, -187500.02235174447, -0.192, -0.77, -0.622, 192.0, 0.0, 0.0, 0.0, 0.0, 0.0, 0.0, 0.0, 0.0, 0.0, 1.6776146579562037E9, 0.0, 2023-02-28 12:04:17.956
193.0, 27386.296079909334, -4302.174365779682, 14894.531952682968, -2828.2332811633687, 15236.021904471148, 7596.262704880561, -187500.02235174447, -187500.02235174447, -0.192, -0.77, -0.622, 192.0, 0.0, 0.0, 0.0, 0.0, 0.0, 0.0, 0.0, 0.0, 0.0, 1.6776146579602647E9, 0.0, 2023-02-28 12:04:17.960
194.0, 27225.788202975775, -4307.807005382419, 13913.290371094987, -2825.6181270620978, 14711.694683038555, 7252.850503069223, -187500.02235174447, -187500.02235174447, -0.192, -0.77, -0.622, 192.0, 0.0, 0.0, 0.0, 0.0, 0.0, 0.0, 0.0, 0.0, 0.0, 1.677614657963245E9, 0.0, 2023-02-28 12:04:17.963
195.0, 27323.688843690023, -4314.959563608118, 14436.611764027091, -2840.1020574691365, 14978.149828690272, 7581.108222139862, -187500.02235174447, -187500.02235174447, -0.192, -0.77, -0.622, 192.0, 0.0, 0.0, 0.0, 0.0, 0.0, 0.0, 0.0, 0.0, 0.0, 1.6776146579672875E9, 0.0, 2023-02-28 12:04:17.967
196.0, 27487.169502636138, -4315.898336875241, 15507.439137391942, -2846.6287668500863, 15544.02894306528, 7974.275407108714, -187500.02235174447, -187500.02235174447, -0.192, -0.77, -0.622, 192.0, 0.0, 0.0, 0.0, 0.0, 0.0, 0.0, 0.0, 0.0, 0.0, 1.67761465797124E9, 0.0, 2023-02-28 12:04:17.971
197.0, 27393.359231157214, -4314.0878455743605, 15110.539211099054, -2835.676412066986, 15340.851585966539, 7683.725080934177, -187500.02235174447, -187500.02235174447, -0.192, -0.77, -0.622, 192.0, 0.0, 0.0, 0.0, 0.0, 0.0, 0.0, 0.0, 0.0, 0.0, 1.6776146579753244E9, 0.0, 2023-02-28 12:04:17.975
198.0, 27198.474371251392, -4318.222918298593, 14006.251276284609, -2829.060295708215, 14755.459398682047, 7258.013756038399, -187500.02235174447, -187500.02235174447, -0.192, -0.77, -0.622, 192.0, 0.0, 0.0, 0.0, 0.0, 0.0, 0.0, 0.0, 0.0, 0.0, 1.6776146579792988E9, 0.0, 2023-02-28 12:04:17.979
199.0, 27263.272078427326, -4321.799197411442, 14246.24195650124, -2840.482037124877, 14879.198655986627, 7483.609912825813, -187500.02235174447, -187500.02235174447, -0.188, -0.772, -0.626, 192.0, 250.0, 32.0, 231.0, 224.0, 236.0, 112.0, 0.0, 0.0, 0.0, 1.6776146579842556E9, 0.0, 2023-02-28 12:04:17.984
200.0, 27452.412540008136, -4321.396866011246, 15398.899066316972, -2849.5344936292763, 15486.942587726426, 7949.5767294856, -187500.02235174447, -187500.02235174447, -0.188, -0.772, -0.626, 192.0, 0.0, 0.0, 0.0, 0.0, 0.0, 0.0, 0.0, 0.0, 0.0, 1.6776146579882824E9, 0.0, 2023-02-28 12:04:17.988
201.0, 27405.98796677446, -4316.837110142364, 15298.852658135016, -2839.4091533910223, 15444.250755816789, 7781.893942581885, -187500.02235174447, -187500.02235174447, -0.188, -0.772, -0.626, 192.0, 0.0, 0.0, 0.0, 0.0, 0.0, 0.0, 0.0, 0.0, 0.0, 1.6776146579912348E9, 0.0, 2023-02-28 12:04:17.991
202.0, 27210.29844406825, -4316.881813631274, 14142.37340001743, -2829.060295708215, 14836.08214093234, 7303.767776938413, -187500.02235174447, -187500.02235174447, -0.188, -0.772, -0.626, 192.0, 0.0, 0.0, 0.0, 0.0, 0.0, 0.0, 0.0, 0.0, 0.0, 1.6776146579952676E9, 0.0, 2023-02-28 12:04:17.995
203.0, 27217.629816249588, -4323.341467778858, 14087.477515635195, -2837.017516734304, 14793.725585189533, 7407.390464233215, -187500.02235174447, -187500.02235174447, -0.188, -0.772, -0.626, 192.0, 0.0, 0.0, 0.0, 0.0, 0.0, 0.0, 0.0, 0.0, 0.0, 1.6776146579992847E9, 0.0, 2023-02-28 12:04:17.999
204.0, 27414.213408734016, -4322.76032242302, 15240.268735917656, -2846.8746360390946, 15398.76495585024, 7906.840194087053, -187500.02235174447, -187500.02235174447, -0.188, -0.772, -0.626, 192.0, 0.0, 0.0, 0.0, 0.0, 0.0, 0.0, 0.0, 0.0, 0.0, 1.6776146580032601E9, 0.0, 2023-02-28 12:04:18.003
205.0, 27420.673062881597, -4317.373552009291, 15445.591860484108, -2838.828008035184, 15520.40314917602, 7869.468077357778, -187500.02235174447, -187500.02235174447, -0.188, -0.772, -0.626, 192.0, 0.0, 0.0, 0.0, 0.0, 0.0, 0.0, 0.0, 0.0, 0.0, 1.6776146580072482E9, 0.0, 2023-02-28 12:04:18.007
206.0, 27223.597732019156, -4315.250136286037, 14316.940524213378, -2826.311031140212, 14928.998342633051, 7369.057222492364, -187500.02235174447, -187500.02235174447, -0.188, -0.772, -0.626, 192.0, 0.0, 0.0, 0.0, 0.0, 0.0, 0.0, 0.0, 0.0, 0.0, 1.6776146580113375E9, 0.0, 2023-02-28 12:04:18.011
207.0, 27182.09054256565, -4321.575679966889, 13970.019098522556, -2832.413057376511, 14732.906488526642, 7341.184597156596, -187500.02235174447, -187500.02235174447, -0.188, -0.772, -0.626, 192.0, 0.0, 0.0, 0.0, 0.0, 0.0, 0.0, 0.0, 0.0, 0.0, 1.677614658015318E9, 0.0, 2023-02-28 12:04:18.015
208.0, 27367.386504100145, -4324.503758490534, 15048.557823724488, -2846.0476214942482, 15291.320120253578, 7838.622670009455, -187500.02235174447, -187500.02235174447, -0.188, -0.772, -0.626, 192.0, 0.0, 0.0, 0.0, 0.0, 0.0, 0.0, 0.0, 0.0, 0.0, 1.6776146580192883E9, 0.0, 2023-02-28 12:04:18.019
209.0, 27434.82171712181, -4318.3123252764135, 15543.872480854092, -2840.929072013983, 15572.214492823423, 7927.4708542193, -187500.02235174447, -187500.02235174447, -0.192, -0.774, -0.624, 192.0, 250.0, 0.0, 231.0, 208.0, 236.0, 128.0, 0.0, 0.0, 0.0, 1.6776146580232563E9, 0.0, 2023-02-28 12:04:18.023
210.0, 27250.48688059889, -4316.144206064249, 14522.621276691114, -2827.7415427853516, 15041.606431198888, 7441.409819294193, -187500.02235174447, -187500.02235174447, -0.192, -0.774, -0.624, 192.0, 0.0, 0.0, 0.0, 0.0, 0.0, 0.0, 0.0, 0.0, 0.0, 1.6776146580273297E9, 0.0, 2023-02-28 12:04:18.027
211.0, 27165.32673422417, -4321.061589844417, 13906.98717915859, -2829.887310253061, 14707.827831247787, 7290.714358176513, -187500.02235174447, -187500.02235174447, -0.192, -0.774, -0.624, 192.0, 0.0, 0.0, 0.0, 0.0, 0.0, 0.0, 0.0, 0.0, 0.0, 1.6776146580313125E9, 0.0, 2023-02-28 12:04:18.031
212.0, 27338.619808986165, -4323.632040456777, 14837.400893855203, -2843.834798793173, 15188.077412614515, 7754.490703879679, -187500.02235174447, -187500.02235174447, -0.192, -0.774, -0.624, 192.0, 0.0, 0.0, 0.0, 0.0, 0.0, 0.0, 0.0, 0.0, 0.0, 1.6776146580353076E9, 0.0, 2023-02-28 12:04:18.035
213.0, 27437.68274041209, -4325.263717802014, 15589.134763376089, -2845.0194412493042, 15592.778097722305, 7970.877941951507, -187500.02235174447, -187500.02235174447, -0.192, -0.774, -0.624, 192.0, 0.0, 0.0, 0.0, 0.0, 0.0, 0.0, 0.0, 0.0, 0.0, 1.6776146580393126E9, 0.0, 2023-02-28 12:04:18.039
214.0, 27269.55291861927, -4324.52611023499, 14742.405979920148, -2831.787208531762, 15154.23687150918, 7529.699209892656, -187500.02235174447, -187500.02235174447, -0.192, -0.774, -0.624, 192.0, 0.0, 0.0, 0.0, 0.0, 0.0, 0.0, 0.0, 0.0, 0.0, 1.6776146580433495E9, 0.0, 2023-02-28 12:04:18.043
215.0, 27146.148937481517, -4326.537767235967, 13897.957074398646, -2829.775551530785, 14702.061081178319, 7265.501590430927, -187500.02235174447, -187500.02235174447, -0.192, -0.774, -0.624, 192.0, 0.0, 0.0, 0.0, 0.0, 0.0, 0.0, 0.0, 0.0, 0.0, 1.6776146580463772E9, 0.0, 2023-02-28 12:04:18.046
216.0, 27285.422657182535, -4329.421142270701, 14617.325617948249, -2843.186598203969, 15070.17196061277, 7665.843685369931, -187500.02235174447, -187500.02235174447, -0.192, -0.774, -0.624, 192.0, 0.0, 0.0, 0.0, 0.0, 0.0, 0.0, 0.0, 0.0, 0.0, 1.677614658051417E9, 0.0, 2023-02-28 12:04:18.051
217.0, 27425.14341177266, -4329.219976570604, 15572.773286434805, -2846.89698778355, 15576.729545203394, 7990.189849160893, -187500.02235174447, -187500.02235174447, -0.192, -0.774, -0.624, 192.0, 0.0, 0.0, 0.0, 0.0, 0.0, 0.0, 0.0, 0.0, 0.0, 1.677614658055339E9, 0.0, 2023-02-28 12:04:18.055
218.0, 27296.01738405435, -4328.035334114473, 14963.285918627493, -2834.2459004218463, 15263.514550151176, 7625.588193605923, -187500.02235174447, -187500.02235174447, -0.192, -0.774, -0.624, 192.0, 0.0, 0.0, 0.0, 0.0, 0.0, 0.0, 0.0, 0.0, 0.0, 1.677614658059366E9, 0.0, 2023-02-28 12:04:18.059
219.0, 27135.12952746505, -4329.7564184375315, 13945.298069154987, -2829.887310253061, 14722.132947699183, 7264.652224141625, -187500.02235174447, -187500.02235174447, -0.188, -0.77, -0.624, 192.0, 250.0, 32.0, 231.0, 240.0, 236.0, 128.0, 0.0, 0.0, 0.0, 1.6776146580633044E9, 0.0, 2023-02-28 12:04:18.063
220.0, 27237.500517070355, -4332.930366150184, 14407.442737512916, -2842.7842668037733, 14955.686325512688, 7577.241370349094, -187500.02235174447, -187500.02235174447, -0.188, -0.77, -0.624, 192.0, 0.0, 0.0, 0.0, 0.0, 0.0, 0.0, 0.0, 0.0, 0.0, 1.6776146580673547E9, 0.0, 2023-02-28 12:04:18.067
221.0, 27412.246455221946, -4331.633964971777, 15503.393471645531, -2849.4674383959104, 15538.55276567373, 7991.598009061577, -187500.02235174447, -187500.02235174447, -0.188, -0.77, -0.624, 192.0, 0.0, 0.0, 0.0, 0.0, 0.0, 0.0, 0.0, 0.0, 0.0, 1.6776146580712981E9, 0.0, 2023-02-28 12:04:18.071
222.0, 27321.274855288848, -4329.734066693076, 15171.559473462043, -2838.939766757461, 15373.127504960003, 7730.7531512681435, -187500.02235174447, -187500.02235174447, -0.188, -0.77, -0.624, 192.0, 0.0, 0.0, 0.0, 0.0, 0.0, 0.0, 0.0, 0.0, 0.0, 1.6776146580743191E9, 0.0, 2023-02-28 12:04:18.074
223.0, 27146.439510159435, -4328.95175563714, 14045.25507035912, -2830.870787009095, 14778.235826282005, 7291.317855276806, -187500.02235174447, -187500.02235174447, -0.188, -0.77, -0.624, 192.0, 0.0, 0.0, 0.0, 0.0, 0.0, 0.0, 0.0, 0.0, 0.0, 1.677614658079376E9, 0.0, 2023-02-28 12:04:18.079
224.0, 27210.633720235077, -4331.231633571581, 14217.47526138726, -2841.1302377140805, 14860.602004599812, 7486.67210181619, -187500.02235174447, -187500.02235174447, -0.188, -0.77, -0.624, 192.0, 0.0, 0.0, 0.0, 0.0, 0.0, 0.0, 0.0, 0.0, 0.0, 1.6776146580833669E9, 0.0, 2023-02-28 12:04:18.083
225.0, 27402.501094639432, -4332.215110327615, 15376.748487561761, -2851.1438192300584, 15473.464485819875, 7957.0422121336715, -187500.02235174447, -187500.02235174447, -0.188, -0.77, -0.624, 192.0, 0.0, 0.0, 0.0, 0.0, 0.0, 0.0, 0.0, 0.0, 0.0, 1.67761465808735E9, 0.0, 2023-02-28 12:04:18.087
226.0, 27359.339876096237, -4331.3433922938575, 15347.400647091943, -2842.225473192391, 15466.602500272096, 7815.153338331383, -187500.02235174447, -187500.02235174447, -0.188, -0.77, -0.624, 192.0, 0.0, 0.0, 0.0, 0.0, 0.0, 0.0, 0.0, 0.0, 0.0, 1.677614658091388E9, 0.0, 2023-02-28 12:04:18.091
227.0, 27163.538594667745, -4329.734066693076, 14186.719261016759, -2831.787208531762, 14855.930490008652, 7328.712323750535, -187500.02235174447, -187500.02235174447, -0.188, -0.77, -0.624, 192.0, 0.0, 0.0, 0.0, 0.0, 0.0, 0.0, 0.0, 0.0, 0.0, 1.677614658095395E9, 0.0, 2023-02-28 12:04:18.095
228.0, 27177.083751807662, -4328.281203303481, 14060.789532755558, -2837.576310345687, 14781.521532716935, 7404.887068854221, -187500.02235174447, -187500.02235174447, -0.188, -0.77, -0.624, 192.0, 0.0, 0.0, 0.0, 0.0, 0.0, 0.0, 0.0, 0.0, 0.0, 1.677614658100426E9, 0.0, 2023-02-28 12:04:18.100
229.0, 27371.767446013386, -4329.309383548425, 15205.064738400548, -2849.1992174624465, 15378.961310262837, 7906.460214431312, -187500.02235174447, -187500.02235174447, -0.188, -0.768, -0.622, 192.0, 250.0, 32.0, 232.0, 0.0, 236.0, 144.0, 0.0, 0.0, 0.0, 1.6776146581043992E9, 0.0, 2023-02-28 12:04:18.104
230.0, 27382.3621728852, -4329.845825415352, 15482.405183601999, -2844.438295893466, 15528.807405091216, 7899.464118416801, -187500.02235174447, -187500.02235174447, -0.188, -0.768, -0.622, 192.0, 0.0, 0.0, 0.0, 0.0, 0.0, 0.0, 0.0, 0.0, 0.0, 1.6776146581073596E9, 0.0, 2023-02-28 12:04:18.107
231.0, 27193.601690960135, -4328.795293425953, 14372.55166441818, -2833.2400719213574, 14944.666915496222, 7403.210688020074, -187500.02235174447, -187500.02235174447, -0.188, -0.768, -0.622, 192.0, 0.0, 0.0, 0.0, 0.0, 0.0, 0.0, 0.0, 0.0, 0.0, 1.677614658111418E9, 0.0, 2023-02-28 12:04:18.111
232.0, 27150.775748583765, -4332.885662661274, 13958.016211750057, -2838.4927318683544, 14718.020226719407, 7347.398382115171, -187500.02235174447, -187500.02235174447, -0.188, -0.768, -0.622, 192.0, 0.0, 0.0, 0.0, 0.0, 0.0, 0.0, 0.0, 0.0, 0.0, 1.6776146581153495E9, 0.0, 2023-02-28 12:04:18.115
233.0, 27334.12710835065, -4337.087790618872, 15008.503497660578, -2852.5519791307424, 15269.54952115411, 7842.26600435567, -187500.02235174447, -187500.02235174447, -0.188, -0.768, -0.622, 192.0, 0.0, 0.0, 0.0, 0.0, 0.0, 0.0, 0.0, 0.0, 0.0, 1.6776146581194372E9, 0.0, 2023-02-28 12:04:18.119
234.0, 27405.451524907534, -4335.254947573537, 15566.380687520586, -2850.4956186408544, 15574.360260291132, 7964.775915715208, -187500.02235174447, -187500.02235174447, -0.188, -0.768, -0.622, 192.0, 0.0, 0.0, 0.0, 0.0, 0.0, 0.0, 0.0, 0.0, 0.0, 1.6776146581234145E9, 0.0, 2023-02-28 12:04:18.123
235.0, 27227.889266954575, -4331.723371949598, 14577.204236650972, -2837.2410341788573, 15057.78909418453, 7483.296988403438, -187500.02235174447, -187500.02235174447, -0.188, -0.768, -0.622, 192.0, 0.0, 0.0, 0.0, 0.0, 0.0, 0.0, 0.0, 0.0, 0.0, 1.6776146581275213E9, 0.0, 2023-02-28 12:04:18.127
236.0, 27137.789385055232, -4329.823473670897, 13901.578057000406, -2836.3693161451, 14697.52367705389, 7306.137061850675, -187500.02235174447, -187500.02235174447, -0.188, -0.768, -0.622, 192.0, 0.0, 0.0, 0.0, 0.0, 0.0, 0.0, 0.0, 0.0, 0.0, 1.6776146581303997E9, 0.0, 2023-02-28 12:04:18.130
237.0, 27301.873541101642, -4329.354087037335, 14790.171657821138, -2847.478133139388, 15157.23200526619, 7759.721012082221, -187500.02235174447, -187500.02235174447, -0.188, -0.768, -0.622, 192.0, 0.0, 0.0, 0.0, 0.0, 0.0, 0.0, 0.0, 0.0, 0.0, 1.6776146581353867E9, 0.0, 2023-02-28 12:04:18.135
238.0, 27425.031653050384, -4326.560118980422, 15595.639121012584, -2847.6569470950303, 15585.51378077433, 8000.985741732806, -187500.02235174447, -187500.02235174447, -0.188, -0.768, -0.622, 192.0, 0.0, 0.0, 0.0, 0.0, 0.0, 0.0, 0.0, 0.0, 0.0, 1.6776146581394036E9, 0.0, 2023-02-28 12:04:18.139
239.0, 27279.54414839079, -4322.693267189654, 14795.424317768136, -2834.1341416995697, 15169.816037394528, 7572.189876102195, -187500.02235174447, -187500.02235174447, -0.188, -0.768, -0.622, 192.0, 0.0, 0.0, 0.0, 0.0, 0.0, 0.0, 0.0, 0.0, 0.0, 1.67761465814344E9, 0.0, 2023-02-28 12:04:18.143
240.0, 27139.018731000273, -4328.728238192587, 13904.66259773524, -2832.725981798885, 14695.020281674897, 7280.9466458495435, -187500.02235174447, -187500.02235174447, -0.184, -0.766, -0.624, 192.0, 250.0, 64.0, 232.0, 16.0, 236.0, 128.0, 0.0, 0.0, 0.0, 1.6776146581474404E9, 0.0, 2023-02-28 12:04:18.147
241.0, 27272.77156982083, -4334.562043495422, 14570.632823781112, -2847.5451883727537, 15034.364465995368, 7662.714441146189, -187500.02235174447, -187500.02235174447, -0.184, -0.766, -0.624, 192.0, 0.0, 0.0, 0.0, 0.0, 0.0, 0.0, 0.0, 0.0, 0.0, 1.67761465815141E9, 0.0, 2023-02-28 12:04:18.151
242.0, 27421.18715300407, -4336.841921429864, 15568.526454988296, -2854.027194264793, 15560.859806640126, 8010.798157548686, -187500.02235174447, -187500.02235174447, -0.184, -0.766, -0.624, 192.0, 0.0, 0.0, 0.0, 0.0, 0.0, 0.0, 0.0, 0.0, 0.0, 1.6776146581554084E9, 0.0, 2023-02-28 12:04:18.155
243.0, 27306.813276626264, -4334.137360350771, 15016.460718686667, -2842.1137144701142, 15279.160771269891, 7665.977795836663, -187500.02235174447, -187500.02235174447, -0.184, -0.766, -0.624, 192.0, 0.0, 0.0, 0.0, 0.0, 0.0, 0.0, 0.0, 0.0, 0.0, 1.6776146581585736E9, 0.0, 2023-02-28 12:04:18.158
244.0, 27138.03525424424, -4335.545520251456, 13967.135723487821, -2836.9057580120275, 14726.737407056977, 7279.493782459949, -187500.02235174447, -187500.02235174447, -0.184, -0.766, -0.624, 192.0, 0.0, 0.0, 0.0, 0.0, 0.0, 0.0, 0.0, 0.0, 0.0, 1.6776146581625197E9, 0.0, 2023-02-28 12:04:18.162
245.0, 27233.745424001867, -4338.719467964109, 14365.622623637037, -2849.7803628182846, 14926.226726320592, 7563.562102742447, -187500.02235174447, -187500.02235174447, -0.184, -0.766, -0.624, 192.0, 0.0, 0.0, 0.0, 0.0, 0.0, 0.0, 0.0, 0.0, 0.0, 1.6776146581674328E9, 0.0, 2023-02-28 12:04:18.167
246.0, 27410.726536598988, -4339.390020297768, 15488.26134064929, -2857.2681972108126, 15518.011512519302, 7995.911895741451, -187500.02235174447, -187500.02235174447, -0.184, -0.766, -0.624, 192.0, 0.0, 0.0, 0.0, 0.0, 0.0, 0.0, 0.0, 0.0, 0.0, 1.6776146581714191E9, 0.0, 2023-02-28 12:04:18.171
247.0, 27335.64702697361, -4337.624232485799, 15220.174517652336, -2845.9582145164272, 15388.460801656343, 7761.844427805475, -187500.02235174447, -187500.02235174447, -0.184, -0.766, -0.624, 192.0, 0.0, 0.0, 0.0, 0.0, 0.0, 0.0, 0.0, 0.0, 0.0, 1.677614658175523E9, 0.0, 2023-02-28 12:04:18.175
248.0, 27164.924402823974, -4333.422104528201, 14077.21806493021, -2836.1905021894577, 14790.350471776781, 7310.16037585263, -187500.02235174447, -187500.02235174447, -0.184, -0.766, -0.624, 192.0, 0.0, 0.0, 0.0, 0.0, 0.0, 0.0, 0.0, 0.0, 0.0, 1.6776146581794183E9, 0.0, 2023-02-28 12:04:18.179
249.0, 27216.28871158227, -4334.986726640073, 14181.37719409194, -2845.2876621827677, 14837.289135132925, 7479.4077848682155, -187500.02235174447, -187500.02235174447, -0.184, -0.766, -0.624, 192.0, 0.0, 0.0, 0.0, 0.0, 0.0, 0.0, 0.0, 0.0, 0.0, 1.677614658182448E9, 0.0, 2023-02-28 12:04:18.182
250.0, 27400.690603338553, -4338.272433075003, 15349.859338982027, -2855.9494442879495, 15450.799816942194, 7965.178247115404, -187500.02235174447, -187500.02235174447, -0.184, -0.78, -0.63, 192.0, 250.0, 64.0, 231.0, 160.0, 236.0, 80.0, 0.0, 0.0, 0.0, 1.677614658186562E9, 0.0, 2023-02-28 12:04:18.186
251.0, 27375.500187337424, -4334.629098728788, 15387.410269666943, -2846.1370284720697, 15480.125305667558, 7853.531283561145, -187500.02235174447, -187500.02235174447, -0.184, -0.78, -0.63, 192.0, 0.0, 0.0, 0.0, 0.0, 0.0, 0.0, 0.0, 0.0, 0.0, 1.6776146581905267E9, 0.0, 2023-02-28 12:04:18.190
252.0, 27188.259624035316, -4330.650488215743, 14226.751235336214, -2833.2400719213574, 14874.482437906558, 7357.613129331247, -187500.02235174447, -187500.02235174447, -0.184, -0.78, -0.63, 192.0, 0.0, 0.0, 0.0, 0.0, 0.0, 0.0, 0.0, 0.0, 0.0, 1.6776146581955202E9, 0.0, 2023-02-28 12:04:18.195
253.0, 27190.606557203122, -4331.231633571581, 14038.147215622332, -2839.833836535673, 14765.405924964658, 7401.958990330576, -187500.02235174447, -187500.02235174447, -0.184, -0.78, -0.63, 192.0, 0.0, 0.0, 0.0, 0.0, 0.0, 0.0, 0.0, 0.0, 0.0, 1.677614658199478E9, 0.0, 2023-02-28 12:04:18.199
254.0, 27385.17849268657, -4333.198587083649, 15172.319432773524, -2852.283758197279, 15360.18584492038, 7903.4427289298455, -187500.02235174447, -187500.02235174447, -0.184, -0.78, -0.63, 192.0, 0.0, 0.0, 0.0, 0.0, 0.0, 0.0, 0.0, 0.0, 0.0, 1.6776146582035463E9, 0.0, 2023-02-28 12:04:18.203
255.0, 27409.27367320939, -4332.371572538802, 15511.730672327361, -2847.053449994737, 15551.025039079792, 7922.1734907833925, -187500.02235174447, -187500.02235174447, -0.184, -0.78, -0.63, 192.0, 0.0, 0.0, 0.0, 0.0, 0.0, 0.0, 0.0, 0.0, 0.0, 1.6776146582065432E9, 0.0, 2023-02-28 12:04:18.206
0.0, 27209.203208589937, -4335.0984853623495, 14419.244458585317, -2836.1905021894577, 14983.626006081822, 7416.84525213781, -187500.02235174447, -187500.02235174447, -0.184, -0.78, -0.63, 192.0, 0.0, 0.0, 0.0, 0.0, 0.0, 0.0, 0.0, 0.0, 0.0, 1.6776146582105284E9, 0.0, 2023-02-28 12:04:18.210
1.0, 27162.108083022606, -4336.841921429864, 13944.135778443311, -2840.8173132917063, 14722.803500032844, 7333.7191145085235, -187500.02235174447, -187500.02235174447, -0.184, -0.78, -0.63, 192.0, 0.0, 0.0, 0.0, 0.0, 0.0, 0.0, 0.0, 0.0, 0.0, 1.6776146582144768E9, 0.0, 2023-02-28 12:04:18.214
2.0, 27355.942410939027, -4337.937156908173, 14968.940909974684, -2855.0777262541924, 15254.26092794668, 7821.344771545502, -187500.02235174447, -187500.02235174447, -0.184, -0.78, -0.63, 192.0, 0.0, 0.0, 0.0, 0.0, 0.0, 0.0, 0.0, 0.0, 0.0, 1.6776146582184753E9, 0.0, 2023-02-28 12:04:18.218
3.0, 27429.278484496892, -4339.010040642028, 15587.212513352933, -2854.3401186871674, 15582.809219695238, 7970.296796595669, -187500.02235174447, -187500.02235174447, -0.184, -0.78, -0.63, 192.0, 0.0, 0.0, 0.0, 0.0, 0.0, 0.0, 0.0, 0.0, 0.0, 1.677614658222484E9, 0.0, 2023-02-28 12:04:18.222
4.0, 27246.68708404149, -4338.294784819458, 14631.13899602163, -2841.1078859696254, 15085.639367775842, 7499.032616499975, -187500.02235174447, -187500.02235174447, -0.186, -0.776, -0.626, 192.0, 250.0, 48.0, 231.0, 192.0, 236.0, 112.0, 0.0, 0.0, 0.0, 1.6776146582275264E9, 0.0, 2023-02-28 12:04:18.227
5.0, 27146.640675859533, -4339.635889486777, 13900.03578663299, -2840.280871424779, 14690.639339761656, 7296.436404757072, -187500.02235174447, -187500.02235174447, -0.186, -0.776, -0.626, 192.0, 0.0, 0.0, 0.0, 0.0, 0.0, 0.0, 0.0, 0.0, 0.0, 1.6776146582315547E9, 0.0, 2023-02-28 12:04:18.231
6.0, 27310.79188713931, -4340.127627864794, 14744.887023554687, -2853.0437175087595, 15125.313714184012, 7737.883357749386, -187500.02235174447, -187500.02235174447, -0.186, -0.776, -0.626, 192.0, 0.0, 0.0, 0.0, 0.0, 0.0, 0.0, 0.0, 0.0, 0.0, 1.6776146582345133E9, 0.0, 2023-02-28 12:04:18.234
7.0, 27431.804231620343, -4338.719467964109, 15600.020062925823, -2854.18365647598, 15583.010385395335, 8004.830241779118, -187500.02235174447, -187500.02235174447, -0.186, -0.776, -0.626, 192.0, 0.0, 0.0, 0.0, 0.0, 0.0, 0.0, 0.0, 0.0, 0.0, 1.677614658238508E9, 0.0, 2023-02-28 12:04:18.238
8.0, 27291.658793885566, -4335.210244084626, 14849.001449227508, -2840.213816191413, 15193.57594175052, 7591.83705947841, -187500.02235174447, -187500.02235174447, -0.186, -0.776, -0.626, 192.0, 0.0, 0.0, 0.0, 0.0, 0.0, 0.0, 0.0, 0.0, 0.0, 1.6776146582425878E9, 0.0, 2023-02-28 12:04:18.242
9.0, 27143.310265935692, -4340.284090075981, 13912.575115272417, -2837.665717323508, 14695.891999708654, 7274.777564379879, -187500.02235174447, -187500.02235174447, -0.186, -0.776, -0.626, 192.0, 0.0, 0.0, 0.0, 0.0, 0.0, 0.0, 0.0, 0.0, 0.0, 1.6776146582465122E9, 0.0, 2023-02-28 12:04:18.246
10.0, 27249.503403842857, -4352.0634594039275, 14522.464814479927, -2852.1049442416365, 15010.40339593928, 7633.2548419540935, -187500.02235174447, -187500.02235174447, -0.186, -0.776, -0.626, 192.0, 0.0, 0.0, 0.0, 0.0, 0.0, 0.0, 0.0, 0.0, 0.0, 1.6776146582515864E9, 0.0, 2023-02-28 12:04:18.251
11.0, 27407.440830164058, -4353.829247215896, 15556.07653332669, -2857.894046055561, 15560.591585706663, 8005.009055734761, -187500.02235174447, -187500.02235174447, -0.186, -0.776, -0.626, 192.0, 0.0, 0.0, 0.0, 0.0, 0.0, 0.0, 0.0, 0.0, 0.0, 1.6776146582555425E9, 0.0, 2023-02-28 12:04:18.255
12.0, 27308.891988860607, -4349.850636702852, 15063.712306465186, -2846.5170081278097, 15310.386158273956, 7683.926246634275, -187500.02235174447, -187500.02235174447, -0.186, -0.776, -0.626, 192.0, 0.0, 0.0, 0.0, 0.0, 0.0, 0.0, 0.0, 0.0, 0.0, 1.6776146582596114E9, 0.0, 2023-02-28 12:04:18.259
13.0, 27139.018731000273, -4351.035279158983, 13983.519552173562, -2841.309051669723, 14738.20385196255, 7276.655110914125, -187500.02235174447, -187500.02235174447, -0.186, -0.776, -0.626, 192.0, 0.0, 0.0, 0.0, 0.0, 0.0, 0.0, 0.0, 0.0, 0.0, 1.6776146582625663E9, 0.0, 2023-02-28 12:04:18.262
14.0, 27214.455868536934, -4356.176180383704, 14318.147518413964, -2853.8036768202396, 14904.053795820928, 7532.850805860854, -187500.02235174447, -187500.02235174447, -0.196, -0.776, -0.624, 192.0, 249.0, 224.0, 231.0, 192.0, 236.0, 128.0, 0.0, 0.0, 0.0, 1.6776146582665377E9, 0.0, 2023-02-28 12:04:18.266
15.0, 27397.494303881445, -4355.0585931609385, 15458.667630990461, -2861.827953079695, 15506.656826336006, 7979.52806705571, -187500.02235174447, -187500.02235174447, -0.196, -0.776, -0.624, 192.0, 0.0, 0.0, 0.0, 0.0, 0.0, 0.0, 0.0, 0.0, 0.0, 1.677614658270594E9, 0.0, 2023-02-28 12:04:18.270
16.0, 27354.333085338247, -4344.441514544668, 15259.044201260114, -2848.70747908443, 15414.075900802125, 7769.891055809386, -187500.02235174447, -187500.02235174447, -0.196, -0.776, -0.624, 192.0, 0.0, 0.0, 0.0, 0.0, 0.0, 0.0, 0.0, 0.0, 0.0, 1.677614658274593E9, 0.0, 2023-02-28 12:04:18.274
17.0, 27169.84178660414, -4340.395848798257, 14102.296722209065, -2838.224510934891, 14803.135669605217, 7303.901887405144, -187500.02235174447, -187500.02235174447, -0.196, -0.776, -0.624, 192.0, 0.0, 0.0, 0.0, 0.0, 0.0, 0.0, 0.0, 0.0, 0.0, 1.677614658278587E9, 0.0, 2023-02-28 12:04:18.278
18.0, 27184.6162896891, -4346.76609596802, 14143.580394218015, -2847.8134093062176, 14818.401911068191, 7444.5390635179365, -187500.02235174447, -187500.02235174447, -0.196, -0.776, -0.624, 192.0, 0.0, 0.0, 0.0, 0.0, 0.0, 0.0, 0.0, 0.0, 0.0, 1.6776146582836185E9, 0.0, 2023-02-28 12:04:18.283
19.0, 27371.856852991208, -4347.391944812768, 15312.93425714186, -2858.095211755659, 15433.432511500421, 7937.730304924286, -187500.02235174447, -187500.02235174447, -0.196, -0.776, -0.624, 192.0, 0.0, 0.0, 0.0, 0.0, 0.0, 0.0, 0.0, 0.0, 0.0, 1.677614658287563E9, 0.0, 2023-02-28 12:04:18.287
20.0, 27376.282498393357, -4339.837055186875, 15418.09921480408, -2848.70747908443, 15500.934779755447, 7855.878216728952, -187500.02235174447, -187500.02235174447, -0.196, -0.776, -0.624, 192.0, 0.0, 0.0, 0.0, 0.0, 0.0, 0.0, 0.0, 0.0, 0.0, 1.6776146582906508E9, 0.0, 2023-02-28 12:04:18.290
21.0, 27185.778580400776, -4337.735991208076, 14264.279814276673, -2836.4810748673767, 14895.738946883554, 7357.993108986987, -187500.02235174447, -187500.02235174447, -0.196, -0.776, -0.624, 192.0, 0.0, 0.0, 0.0, 0.0, 0.0, 0.0, 0.0, 0.0, 0.0, 1.677614658294572E9, 0.0, 2023-02-28 12:04:18.294
22.0, 27156.542498653234, -4345.29088083397, 14004.843116383925, -2842.739563314863, 14749.290317212382, 7371.9853010160095, -187500.02235174447, -187500.02235174447, -0.196, -0.776, -0.624, 192.0, 0.0, 0.0, 0.0, 0.0, 0.0, 0.0, 0.0, 0.0, 0.0, 1.6776146582986472E9, 0.0, 2023-02-28 12:04:18.298
23.0, 27350.399178314114, -4349.0683256469165, 15120.932772270773, -2855.5918163766646, 15337.901155698439, 7871.882065758952, -187500.02235174447, -187500.02235174447, -0.196, -0.776, -0.624, 192.0, 0.0, 0.0, 0.0, 0.0, 0.0, 0.0, 0.0, 0.0, 0.0, 1.6776146583025851E9, 0.0, 2023-02-28 12:04:18.302
24.0, 27386.363135142703, -4348.554235524444, 15529.008570791313, -2851.99318551936, 15564.726658430895, 7918.574859926089, -187500.02235174447, -187500.02235174447, -0.192, -0.774, -0.626, 192.0, 250.0, 0.0, 231.0, 208.0, 236.0, 112.0, 0.0, 0.0, 0.0, 1.6776146583066533E9, 0.0, 2023-02-28 12:04:18.306
25.0, 27196.507417739325, -4345.670860489709, 14458.896453249034, -2839.6550225800306, 15008.704663360675, 7420.734455673034, -187500.02235174447, -187500.02235174447, -0.192, -0.774, -0.626, 192.0, 0.0, 0.0, 0.0, 0.0, 0.0, 0.0, 0.0, 0.0, 0.0, 1.6776146583107293E9, 0.0, 2023-02-28 12:04:18.310
26.0, 27143.019693257775, -4343.189816855171, 13921.694627010183, -2841.890197025561, 14721.216526176517, 7308.998085140955, -187500.02235174447, -187500.02235174447, -0.192, -0.774, -0.626, 192.0, 0.0, 0.0, 0.0, 0.0, 0.0, 0.0, 0.0, 0.0, 0.0, 1.6776146583167317E9, 0.0, 2023-02-28 12:04:18.316
27.0, 27327.30982629178, -4343.122761621805, 14914.425005248191, -2854.56363613172, 15234.993724226204, 7790.789936875098, -187500.02235174447, -187500.02235174447, -0.192, -0.774, -0.626, 192.0, 0.0, 0.0, 0.0, 0.0, 0.0, 0.0, 0.0, 0.0, 0.0, 1.6776146583197355E9, 0.0, 2023-02-28 12:04:18.319
28.0, 27410.14539124315, -4342.340450565869, 15591.928731433003, -2854.0718977537035, 15593.247484355867, 7968.598064017066, -187500.02235174447, -187500.02235174447, -0.192, -0.774, -0.626, 192.0, 0.0, 0.0, 0.0, 0.0, 0.0, 0.0, 0.0, 0.0, 0.0, 1.677614658323694E9, 0.0, 2023-02-28 12:04:18.323
29.0, 27246.642380552577, -4338.250081330548, 14677.228293088472, -2840.3702784026004, 15115.478946623678, 7508.688570104668, -187500.02235174447, -187500.02235174447, -0.192, -0.774, -0.626, 192.0, 0.0, 0.0, 0.0, 0.0, 0.0, 0.0, 0.0, 0.0, 0.0, 1.6776146583267136E9, 0.0, 2023-02-28 12:04:18.326
30.0, 27142.349140924114, -4337.311308063425, 13894.581960985895, -2839.565615602209, 14693.612121774213, 7280.745480149446, -187500.02235174447, -187500.02235174447, -0.192, -0.774, -0.626, 192.0, 0.0, 0.0, 0.0, 0.0, 0.0, 0.0, 0.0, 0.0, 0.0, 1.6776146583306527E9, 0.0, 2023-02-28 12:04:18.330
31.0, 27295.25742474287, -4340.172331353704, 14691.891037451154, -2852.596682619653, 15102.380824372867, 7707.261467845616, -187500.02235174447, -187500.02235174447, -0.192, -0.774, -0.626, 192.0, 0.0, 0.0, 0.0, 0.0, 0.0, 0.0, 0.0, 0.0, 0.0, 1.6776146583347273E9, 0.0, 2023-02-28 12:04:18.334
32.0, 27420.695414626054, -4343.301575577447, 15594.208609367444, -2855.413002421022, 15581.199894094456, 7996.470689352834, -187500.02235174447, -187500.02235174447, -0.192, -0.774, -0.626, 192.0, 0.0, 0.0, 0.0, 0.0, 0.0, 0.0, 0.0, 0.0, 0.0, 1.6776146583387275E9, 0.0, 2023-02-28 12:04:18.338
33.0, 27269.77643606382, -4345.603805256344, 14896.878885850774, -2844.0359644932705, 15219.906296718873, 7598.654341537278, -187500.02235174447, -187500.02235174447, -0.192, -0.774, -0.626, 192.0, 0.0, 0.0, 0.0, 0.0, 0.0, 0.0, 0.0, 0.0, 0.0, 1.6776146583437612E9, 0.0, 2023-02-28 12:04:18.343
34.0, 27124.490097104324, -4347.123723879305, 13919.884135709302, -2839.900891769039, 14703.6704067791, 7263.355822963217, -187500.02235174447, -187500.02235174447, -0.19, -0.77, -0.622, 192.0, 250.0, 16.0, 231.0, 240.0, 236.0, 144.0, 0.0, 0.0, 0.0, 1.6776146583467245E9, 0.0, 2023-02-28 12:04:18.346
35.0, 27237.63462753709, -4350.789409969975, 14470.251139432328, -2852.283758197279, 14982.955453748162, 7606.343341629904, -187500.02235174447, -187500.02235174447, -0.19, -0.77, -0.622, 192.0, 0.0, 0.0, 0.0, 0.0, 0.0, 0.0, 0.0, 0.0, 0.0, 1.677614658350681E9, 0.0, 2023-02-28 12:04:18.350
36.0, 27404.33393768477, -4352.711659993131, 15534.574155160684, -2858.9222263005054, 15548.07460881169, 7998.884677754007, -187500.02235174447, -187500.02235174447, -0.19, -0.77, -0.622, 192.0, 0.0, 0.0, 0.0, 0.0, 0.0, 0.0, 0.0, 0.0, 0.0, 1.67761465835468E9, 0.0, 2023-02-28 12:04:18.354
37.0, 27313.183523796026, -4349.627119258299, 15102.13495518386, -2847.6569470950303, 15334.146062629947, 7698.1196043633945, -187500.02235174447, -187500.02235174447, -0.19, -0.77, -0.622, 192.0, 0.0, 0.0, 0.0, 0.0, 0.0, 0.0, 0.0, 0.0, 0.0, 1.6776146583587408E9, 0.0, 2023-02-28 12:04:18.358
38.0, 27127.775803539254, -4352.085811148383, 13994.494258701117, -2840.504388869332, 14747.636288122689, 7275.693985902547, -187500.02235174447, -187500.02235174447, -0.19, -0.77, -0.622, 192.0, 0.0, 0.0, 0.0, 0.0, 0.0, 0.0, 0.0, 0.0, 0.0, 1.677614658362715E9, 0.0, 2023-02-28 12:04:18.362
39.0, 27197.982632873372, -4355.215055372126, 14261.888177619956, -2851.65790935253, 14875.220045473581, 7508.710921849123, -187500.02235174447, -187500.02235174447, -0.19, -0.77, -0.622, 192.0, 0.0, 0.0, 0.0, 0.0, 0.0, 0.0, 0.0, 0.0, 0.0, 1.6776146583666961E9, 0.0, 2023-02-28 12:04:18.366
40.0, 27381.602213573722, -4356.645567017265, 15413.897086846482, -2859.99511003436, 15482.53929406873, 7967.256959349747, -187500.02235174447, -187500.02235174447, -0.19, -0.77, -0.622, 192.0, 0.0, 0.0, 0.0, 0.0, 0.0, 0.0, 0.0, 0.0, 0.0, 1.6776146583717053E9, 0.0, 2023-02-28 12:04:18.371
41.0, 27323.040643100816, -4356.779677483997, 15281.060669548593, -2850.3615081741227, 15422.368397995044, 7781.558666415056, -187500.02235174447, -187500.02235174447, -0.19, -0.77, -0.622, 192.0, 0.0, 0.0, 0.0, 0.0, 0.0, 0.0, 0.0, 0.0, 0.0, 1.6776146583746784E9, 0.0, 2023-02-28 12:04:18.374
42.0, 27137.74468156632, -4352.868122204319, 14112.9808560587, -2839.5879673466648, 14807.382501051725, 7302.001989126443, -187500.02235174447, -187500.02235174447, -0.19, -0.77, -0.622, 192.0, 0.0, 0.0, 0.0, 0.0, 0.0, 0.0, 0.0, 0.0, 0.0, 1.677614658378712E9, 0.0, 2023-02-28 12:04:18.378
43.0, 27164.94675456843, -4351.750534981553, 14079.11796320891, -2846.964043016916, 14779.934558860608, 7415.794720148411, -187500.02235174447, -187500.02235174447, -0.19, -0.77, -0.622, 192.0, 0.0, 0.0, 0.0, 0.0, 0.0, 0.0, 0.0, 0.0, 0.0, 1.67761465838268E9, 0.0, 2023-02-28 12:04:18.382
44.0, 27359.831614474253, -4352.1752181262045, 15241.63219232943, -2857.223493721902, 15397.021519782726, 7914.37273196849, -187500.02235174447, -187500.02235174447, -0.192, -0.768, -0.618, 192.0, 250.0, 0.0, 232.0, 0.0, 236.0, 176.0, 0.0, 0.0, 0.0, 1.6776146583867116E9, 0.0, 2023-02-28 12:04:18.386
45.0, 27364.70429476551, -4347.280186090492, 15424.24594452929, -2849.355679673634, 15503.706396067906, 7867.769344779175, -187500.02235174447, -187500.02235174447, -0.192, -0.768, -0.618, 192.0, 0.0, 0.0, 0.0, 0.0, 0.0, 0.0, 0.0, 0.0, 0.0, 1.6776146583907022E9, 0.0, 2023-02-28 12:04:18.390
46.0, 27176.770827385288, -4344.307404077936, 14287.16800059891, -2837.8221795346954, 14909.306455767924, 7369.191332959096, -187500.02235174447, -187500.02235174447, -0.192, -0.768, -0.618, 192.0, 0.0, 0.0, 0.0, 0.0, 0.0, 0.0, 0.0, 0.0, 0.0, 1.6776146583957093E9, 0.0, 2023-02-28 12:04:18.395
47.0, 27137.476460632857, -4353.024584415506, 13966.979261276634, -2845.2429586938574, 14729.598430347256, 7356.249672919474, -187500.02235174447, -187500.02235174447, -0.192, -0.768, -0.618, 192.0, 0.0, 0.0, 0.0, 0.0, 0.0, 0.0, 0.0, 0.0, 0.0, 1.6776146583986948E9, 0.0, 2023-02-28 12:04:18.398
48.0, 27321.252503544394, -4360.110087407838, 15067.556806511499, -2859.0339850227815, 15307.346321028033, 7857.0181556961725, -187500.02235174447, -187500.02235174447, -0.192, -0.768, -0.618, 192.0, 0.0, 0.0, 0.0, 0.0, 0.0, 0.0, 0.0, 0.0, 0.0, 1.6776146584017313E9, 0.0, 2023-02-28 12:04:18.401
49.0, 27381.46810310699, -4355.0585931609385, 15539.692704640951, -2854.3401186871674, 15567.453571254442, 7936.702124679342, -187500.02235174447, -187500.02235174447, -0.192, -0.768, -0.618, 192.0, 0.0, 0.0, 0.0, 0.0, 0.0, 0.0, 0.0, 0.0, 0.0, 1.6776146584067452E9, 0.0, 2023-02-28 12:04:18.406
50.0, 27202.922368397998, -4349.694174491665, 14496.11210776712, -2841.3314034141786, 15022.607448411876, 7443.443828039626, -187500.02235174447, -187500.02235174447, -0.192, -0.768, -0.618, 192.0, 0.0, 0.0, 0.0, 0.0, 0.0, 0.0, 0.0, 0.0, 0.0, 1.6776146584108324E9, 0.0, 2023-02-28 12:04:18.410
51.0, 27123.46191685938, -4352.935177437685, 13899.27582732151, -2844.2594819378237, 14699.714148010511, 7301.6667129596135, -187500.02235174447, -187500.02235174447, -0.192, -0.768, -0.618, 192.0, 0.0, 0.0, 0.0, 0.0, 0.0, 0.0, 0.0, 0.0, 0.0, 1.6776146584147222E9, 0.0, 2023-02-28 12:04:18.414
52.0, 27292.664622386055, -4356.846732717363, 14854.03059172995, -2857.759935588829, 15193.710052217253, 7772.282692466104, -187500.02235174447, -187500.02235174447, -0.192, -0.768, -0.618, 192.0, 0.0, 0.0, 0.0, 0.0, 0.0, 0.0, 0.0, 0.0, 0.0, 1.6776146584187393E9, 0.0, 2023-02-28 12:04:18.418
53.0, 27384.284422908357, -4358.567817040422, 15590.2299988544, -2858.832819322684, 15588.173638364511, 7974.4095175754455, -187500.02235174447, -187500.02235174447, -0.192, -0.768, -0.618, 192.0, 0.0, 0.0, 0.0, 0.0, 0.0, 0.0, 0.0, 0.0, 0.0, 1.677614658422734E9, 0.0, 2023-02-28 12:04:18.422
54.0, 27231.66671176752, -4354.209226871637, 14720.300104653848, -2845.377069160589, 15139.954106802239, 7521.406712699737, -187500.02235174447, -187500.02235174447, -0.184, -0.77, -0.622, 192.0, 250.0, 64.0, 231.0, 240.0, 236.0, 144.0, 0.0, 0.0, 0.0, 1.6776146584267259E9, 0.0, 2023-02-28 12:04:18.426
55.0, 27112.353099865093, -4357.271415862014, 13890.402184772753, -2845.3323656716784, 14696.987235186964, 7265.121610775186, -187500.02235174447, -187500.02235174447, -0.184, -0.77, -0.622, 192.0, 0.0, 0.0, 0.0, 0.0, 0.0, 0.0, 0.0, 0.0, 0.0, 1.6776146584299707E9, 0.0, 2023-02-28 12:04:18.429
56.0, 27253.683180056, -4361.540599052978, 14638.783292625343, -2859.3692611896113, 15084.857056719908, 7675.209066296705, -187500.02235174447, -187500.02235174447, -0.184, -0.77, -0.622, 192.0, 0.0, 0.0, 0.0, 0.0, 0.0, 0.0, 0.0, 0.0, 0.0, 1.6776146584347413E9, 0.0, 2023-02-28 12:04:18.434
57.0, 27402.07641149478, -4357.383174584291, 15584.642062740573, -2861.2915112127675, 15587.637196497584, 7998.77291903173, -187500.02235174447, -187500.02235174447, -0.184, -0.77, -0.622, 192.0, 0.0, 0.0, 0.0, 0.0, 0.0, 0.0, 0.0, 0.0, 0.0, 1.6776146584387567E9, 0.0, 2023-02-28 12:04:18.438
58.0, 27267.07187498473, -4358.0537269179495, 14942.990534662073, -2848.3274994286894, 15254.573852369054, 7622.682466826734, -187500.02235174447, -187500.02235174447, -0.184, -0.77, -0.622, 192.0, 0.0, 0.0, 0.0, 0.0, 0.0, 0.0, 0.0, 0.0, 0.0, 1.677614658442776E9, 0.0, 2023-02-28 12:04:18.442
59.0, 27112.151934164995, -4359.260721118537, 13931.819967248437, -2844.0359644932705, 14715.785052273877, 7266.5074189314155, -187500.02235174447, -187500.02235174447, -0.184, -0.77, -0.622, 192.0, 0.0, 0.0, 0.0, 0.0, 0.0, 0.0, 0.0, 0.0, 0.0, 1.6776146584467702E9, 0.0, 2023-02-28 12:04:18.446
60.0, 27227.352825087648, -4356.667918761721, 14420.116176619074, -2854.1389529870694, 14959.262604625537, 7590.630065277823, -187500.02235174447, -187500.02235174447, -0.184, -0.77, -0.622, 192.0, 0.0, 0.0, 0.0, 0.0, 0.0, 0.0, 0.0, 0.0, 0.0, 1.6776146584509125E9, 0.0, 2023-02-28 12:04:18.450
61.0, 27403.66338535111, -4353.359860582335, 15511.238933949344, -2858.475191411399, 15532.69660862644, 8000.538706843699, -187500.02235174447, -187500.02235174447, -0.184, -0.77, -0.622, 192.0, 0.0, 0.0, 0.0, 0.0, 0.0, 0.0, 0.0, 0.0, 0.0, 1.6776146584547703E9, 0.0, 2023-02-28 12:04:18.454
62.0, 27302.812314368763, -4354.253930360547, 15150.302964485047, -2846.606415105631, 15356.251937896246, 7724.449959331747, -187500.02235174447, -187500.02235174447, -0.184, -0.77, -0.622, 192.0, 0.0, 0.0, 0.0, 0.0, 0.0, 0.0, 0.0, 0.0, 0.0, 1.6776146584577634E9, 0.0, 2023-02-28 12:04:18.457
63.0, 27123.663082559477, -4354.946834438662, 14023.216250326188, -2838.7609528018183, 14762.67901214111, 7286.847506385745, -187500.02235174447, -187500.02235174447, -0.184, -0.77, -0.622, 192.0, 0.0, 0.0, 0.0, 0.0, 0.0, 0.0, 0.0, 0.0, 0.0, 1.6776146584627717E9, 0.0, 2023-02-28 12:04:18.462
64.0, 27192.90878688202, -4355.14800013876, 14223.554935879105, -2848.148685473047, 14859.640879588233, 7492.774128052489, -187500.02235174447, -187500.02235174447, -0.186, -0.774, -0.62, 192.0, 250.0, 48.0, 231.0, 208.0, 236.0, 160.0, 0.0, 0.0, 0.0, 1.6776146584667697E9, 0.0, 2023-02-28 12:04:18.466
65.0, 27381.110475195706, -4356.600863528355, 15388.080822000602, -2857.2011419774467, 15471.96691894137, 7963.568921514621, -187500.02235174447, -187500.02235174447, -0.186, -0.774, -0.62, 192.0, 0.0, 0.0, 0.0, 0.0, 0.0, 0.0, 0.0, 0.0, 0.0, 1.677614658470934E9, 0.0, 2023-02-28 12:04:18.470
66.0, 27334.976474639952, -4357.941968195673, 15330.949763172837, -2849.355679673634, 15454.465503032865, 7809.654809195377, -187500.02235174447, -187500.02235174447, -0.186, -0.774, -0.62, 192.0, 0.0, 0.0, 0.0, 0.0, 0.0, 0.0, 0.0, 0.0, 0.0, 1.6776146584747887E9, 0.0, 2023-02-28 12:04:18.474
67.0, 27155.51431840829, -4354.43274431619, 14163.026411894132, -2840.549092358243, 14843.882899747241, 7323.303201592351, -187500.02235174447, -187500.02235174447, -0.186, -0.774, -0.62, 192.0, 0.0, 0.0, 0.0, 0.0, 0.0, 0.0, 0.0, 0.0, 0.0, 1.6776146584797728E9, 0.0, 2023-02-28 12:04:18.479
68.0, 27171.18289127146, -4355.9973664280615, 14070.780762527082, -2849.4227349069997, 14782.996747850984, 7410.94439160161, -187500.02235174447, -187500.02235174447, -0.186, -0.774, -0.62, 192.0, 0.0, 0.0, 0.0, 0.0, 0.0, 0.0, 0.0, 0.0, 0.0, 1.6776146584828036E9, 0.0, 2023-02-28 12:04:18.482
69.0, 27357.551736539812, -4359.618349029822, 15227.707055533774, -2861.112697257125, 15393.244074969778, 7909.030665043672, -187500.02235174447, -187500.02235174447, -0.186, -0.774, -0.62, 192.0, 0.0, 0.0, 0.0, 0.0, 0.0, 0.0, 0.0, 0.0, 0.0, 1.677614658485944E9, 0.0, 2023-02-28 12:04:18.485
70.0, 27363.005562186907, -4357.249064117559, 15475.185570142934, -2855.345947187656, 15533.83654759366, 7884.197876953826, -187500.02235174447, -187500.02235174447, -0.186, -0.774, -0.62, 192.0, 0.0, 0.0, 0.0, 0.0, 0.0, 0.0, 0.0, 0.0, 0.0, 1.6776146584908118E9, 0.0, 2023-02-28 12:04:18.490
71.0, 27176.592013429647, -4353.315157093425, 14350.244623451785, -2842.761915059318, 14943.526976529001, 7384.837554077811, -187500.02235174447, -187500.02235174447, -0.186, -0.774, -0.62, 192.0, 0.0, 0.0, 0.0, 0.0, 0.0, 0.0, 0.0, 0.0, 0.0, 1.6776146584948115E9, 0.0, 2023-02-28 12:04:18.494
72.0, 27147.780614826755, -4353.605729771344, 13964.609976364372, -2847.0758017391922, 14729.620782091712, 7347.308975137351, -187500.02235174447, -187500.02235174447, -0.186, -0.774, -0.62, 192.0, 0.0, 0.0, 0.0, 0.0, 0.0, 0.0, 0.0, 0.0, 0.0, 1.677614658498808E9, 0.0, 2023-02-28 12:04:18.498
73.0, 27333.79183218382, -4357.494933306567, 15037.046675330004, -2860.732717601385, 15285.151038783913, 7845.439952068324, -187500.02235174447, -187500.02235174447, -0.186, -0.774, -0.62, 192.0, 0.0, 0.0, 0.0, 0.0, 0.0, 0.0, 0.0, 0.0, 0.0, 1.6776146585028453E9, 0.0, 2023-02-28 12:04:18.502
74.0, 27389.73824855545, -4359.461886818634, 15573.935577146482, -2858.698708855952, 15573.913225402026, 7953.063601620627, -187500.02235174447, -187500.02235174447, -0.186, -0.776, -0.624, 192.0, 250.0, 48.0, 231.0, 192.0, 236.0, 128.0, 0.0, 0.0, 0.0, 1.6776146585078285E9, 0.0, 2023-02-28 12:04:18.507
75.0, 27199.413144518512, -4358.43370657369, 14565.223701622928, -2844.6394615935637, 15048.043733602017, 7467.7848777514555, -187500.02235174447, -187500.02235174447, -0.186, -0.776, -0.624, 192.0, 0.0, 0.0, 0.0, 0.0, 0.0, 0.0, 0.0, 0.0, 0.0, 1.6776146585108263E9, 0.0, 2023-02-28 12:04:18.510
76.0, 27128.826335528654, -4356.1091251503385, 13910.429347804708, -2844.8853307825725, 14698.261284620916, 7300.280904803384, -187500.02235174447, -187500.02235174447, -0.186, -0.776, -0.624, 192.0, 0.0, 0.0, 0.0, 0.0, 0.0, 0.0, 0.0, 0.0, 0.0, 1.6776146585138297E9, 0.0, 2023-02-28 12:04:18.513
77.0, 27296.777343365833, -4359.059555418438, 14822.492280303513, -2858.162266989025, 15174.331089774501, 7758.804590559554, -187500.02235174447, -187500.02235174447, -0.186, -0.776, -0.624, 192.0, 0.0, 0.0, 0.0, 0.0, 0.0, 0.0, 0.0, 0.0, 0.0, 1.6776146585188465E9, 0.0, 2023-02-28 12:04:18.518
78.0, 27395.929681769572, -4360.132439152293, 15606.56912405123, -2858.3410809446673, 15595.840286712682, 7989.4969450827775, -187500.02235174447, -187500.02235174447, -0.186, -0.776, -0.624, 192.0, 0.0, 0.0, 0.0, 0.0, 0.0, 0.0, 0.0, 0.0, 0.0, 1.6776146585228713E9, 0.0, 2023-02-28 12:04:18.522
79.0, 27238.036958937286, -4357.047898417461, 14780.001614093973, -2844.5947581046535, 15173.548778718565, 7554.308480537949, -187500.02235174447, -187500.02235174447, -0.186, -0.776, -0.624, 192.0, 0.0, 0.0, 0.0, 0.0, 0.0, 0.0, 0.0, 0.0, 0.0, 1.6776146585268807E9, 0.0, 2023-02-28 12:04:18.526
80.0, 27123.439565114924, -4354.8797792052965, 13901.421594789219, -2842.158417959025, 14714.600409817745, 7271.938892834055, -187500.02235174447, -187500.02235174447, -0.186, -0.776, -0.624, 192.0, 0.0, 0.0, 0.0, 0.0, 0.0, 0.0, 0.0, 0.0, 0.0, 1.6776146585308757E9, 0.0, 2023-02-28 12:04:18.530
81.0, 27254.28667715629, -4358.187837384682, 14597.566675849757, -2855.927092543494, 15073.345908325424, 7663.027365568562, -187500.02235174447, -187500.02235174447, -0.186, -0.776, -0.624, 192.0, 0.0, 0.0, 0.0, 0.0, 0.0, 0.0, 0.0, 0.0, 0.0, 1.677614658534866E9, 0.0, 2023-02-28 12:04:18.534
82.0, 27407.552588886334, -4356.533808294989, 15583.815048195727, -2860.062165267726, 15596.17556287951, 8003.891468511995, -187500.02235174447, -187500.02235174447, -0.186, -0.776, -0.624, 192.0, 0.0, 0.0, 0.0, 0.0, 0.0, 0.0, 0.0, 0.0, 0.0, 1.6776146585388649E9, 0.0, 2023-02-28 12:04:18.538
83.0, 27289.02128803984, -4355.125648394304, 15002.87085805784, -2847.9028162840386, 15297.824477890073, 7650.08570552894, -187500.02235174447, -187500.02235174447, -0.186, -0.776, -0.624, 192.0, 0.0, 0.0, 0.0, 0.0, 0.0, 0.0, 0.0, 0.0, 0.0, 1.677614658541911E9, 0.0, 2023-02-28 12:04:18.541
84.0, 27109.78264925273, -4360.735936252587, 13959.111447228366, -2843.834798793173, 14738.87440429621, 7275.023433568887, -187500.02235174447, -187500.02235174447, -0.184, -0.772, -0.628, 192.0, 250.0, 64.0, 231.0, 224.0, 236.0, 96.0, 0.0, 0.0, 0.0, 1.6776146585468695E9, 0.0, 2023-02-28 12:04:18.546
85.0, 27216.33341507118, -4363.552256053956, 14389.56134194867, -2856.6199966216086, 14948.354953331347, 7575.7885069594995, -187500.02235174447, -187500.02235174447, -0.184, -0.772, -0.628, 192.0, 0.0, 0.0, 0.0, 0.0, 0.0, 0.0, 0.0, 0.0, 0.0, 1.6776146585508611E9, 0.0, 2023-02-28 12:04:18.550
86.0, 27399.103629482226, -4363.127572909305, 15505.136907713046, -2863.9737205474044, 15538.2174895069, 8000.672817310431, -187500.02235174447, -187500.02235174447, -0.184, -0.772, -0.628, 192.0, 0.0, 0.0, 0.0, 0.0, 0.0, 0.0, 0.0, 0.0, 0.0, 1.6776146585548697E9, 0.0, 2023-02-28 12:04:18.554
87.0, 27311.5965499397, -4362.479372320101, 15208.775127980129, -2852.507275641832, 15392.394708680476, 7749.43920963278, -187500.02235174447, -187500.02235174447, -0.184, -0.772, -0.628, 192.0, 0.0, 0.0, 0.0, 0.0, 0.0, 0.0, 0.0, 0.0, 0.0, 1.6776146585590165E9, 0.0, 2023-02-28 12:04:18.559
88.0, 27121.89729474751, -4361.406488586246, 14063.136465923366, -2843.7230400708963, 14784.40490775167, 7296.145832079153, -187500.02235174447, -187500.02235174447, -0.184, -0.772, -0.628, 192.0, 0.0, 0.0, 0.0, 0.0, 0.0, 0.0, 0.0, 0.0, 0.0, 1.6776146585629275E9, 0.0, 2023-02-28 12:04:18.562
89.0, 27175.541481440247, -4361.473543819612, 14198.81155476708, -2852.507275641832, 14843.212347413582, 7480.212447668607, -187500.02235174447, -187500.02235174447, -0.184, -0.772, -0.628, 192.0, 0.0, 0.0, 0.0, 0.0, 0.0, 0.0, 0.0, 0.0, 0.0, 1.6776146585658796E9, 0.0, 2023-02-28 12:04:18.565
90.0, 27385.714934553496, -4358.0537269179495, 15367.226644423801, -2862.0738222687037, 15457.304174578689, 7961.311395324636, -187500.02235174447, -187500.02235174447, -0.184, -0.772, -0.628, 192.0, 0.0, 0.0, 0.0, 0.0, 0.0, 0.0, 0.0, 0.0, 0.0, 1.6776146585698721E9, 0.0, 2023-02-28 12:04:18.569
91.0, 27342.12903286565, -4362.971110698118, 15378.916606773926, -2855.413002421022, 15479.275939378256, 7832.744161217709, -187500.02235174447, -187500.02235174447, -0.184, -0.772, -0.628, 192.0, 0.0, 0.0, 0.0, 0.0, 0.0, 0.0, 0.0, 0.0, 0.0, 1.6776146585739005E9, 0.0, 2023-02-28 12:04:18.573
92.0, 27141.745643823822, -4365.832133988397, 14214.144851463421, -2846.025269749793, 14865.698202335621, 7336.69189652108, -187500.02235174447, -187500.02235174447, -0.184, -0.772, -0.628, 192.0, 0.0, 0.0, 0.0, 0.0, 0.0, 0.0, 0.0, 0.0, 0.0, 1.677614658578938E9, 0.0, 2023-02-28 12:04:18.578
93.0, 27135.42010014297, -4372.9623404696395, 14050.932413450768, -2855.0106710208265, 14765.271814497926, 7392.057167536876, -187500.02235174447, -187500.02235174447, -0.184, -0.772, -0.628, 192.0, 0.0, 0.0, 0.0, 0.0, 0.0, 0.0, 0.0, 0.0, 0.0, 1.677614658582898E9, 0.0, 2023-02-28 12:04:18.582
94.0, 27338.97743689745, -4374.996349215073, 15198.716842975242, -2868.3323107161896, 15361.214025165324, 7895.351397437024, -187500.02235174447, -187500.02235174447, -0.19, -0.77, -0.63, 192.0, 250.0, 16.0, 231.0, 240.0, 236.0, 80.0, 0.0, 0.0, 0.0, 1.6776146585868983E9, 0.0, 2023-02-28 12:04:18.586
95.0, 27371.52157682438, -4370.593055557377, 15513.183535716957, -2863.2584647248345, 15535.110597027613, 7906.2590487312145, -187500.02235174447, -187500.02235174447, -0.19, -0.77, -0.63, 192.0, 0.0, 0.0, 0.0, 0.0, 0.0, 0.0, 0.0, 0.0, 0.0, 1.6776146585909083E9, 0.0, 2023-02-28 12:04:18.590
96.0, 27170.62409766008, -4369.698985779165, 14407.62155146856, -2851.4343919079774, 14955.172235390215, 7405.356455487783, -187500.02235174447, -187500.02235174447, -0.19, -0.77, -0.63, 192.0, 0.0, 0.0, 0.0, 0.0, 0.0, 0.0, 0.0, 0.0, 0.0, 1.6776146585939941E9, 0.0, 2023-02-28 12:04:18.593
97.0, 27118.566884823667, -4373.141154425282, 13955.959851260168, -2855.860037310128, 14712.09701443875, 7329.762855739935, -187500.02235174447, -187500.02235174447, -0.19, -0.77, -0.63, 192.0, 0.0, 0.0, 0.0, 0.0, 0.0, 0.0, 0.0, 0.0, 0.0, 1.6776146585979617E9, 0.0, 2023-02-28 12:04:18.597
98.0, 27307.662642915566, -4372.24708464707, 14996.21003821016, -2868.5558281607423, 15256.429047158845, 7824.40696053588, -187500.02235174447, -187500.02235174447, -0.19, -0.77, -0.63, 192.0, 0.0, 0.0, 0.0, 0.0, 0.0, 0.0, 0.0, 0.0, 0.0, 1.677614658602052E9, 0.0, 2023-02-28 12:04:18.602
99.0, 27389.961766000008, -4366.659148533243, 15592.08519364419, -2865.247769981357, 15576.528379503296, 7966.541703527178, -187500.02235174447, -187500.02235174447, -0.19, -0.77, -0.63, 192.0, 0.0, 0.0, 0.0, 0.0, 0.0, 0.0, 0.0, 0.0, 0.0, 1.6776146586069617E9, 0.0, 2023-02-28 12:04:18.606
100.0, 27222.971883174407, -4360.28890136348, 14618.689074360023, -2851.4343919079774, 15065.433390788245, 7492.192982696651, -187500.02235174447, -187500.02235174447, -0.19, -0.77, -0.63, 192.0, 0.0, 0.0, 0.0, 0.0, 0.0, 0.0, 0.0, 0.0, 0.0, 1.6776146586110287E9, 0.0, 2023-02-28 12:04:18.611
101.0, 27123.663082559477, -4363.5299043095, 13909.244705348578, -2852.0825924971814, 14696.316682853305, 7294.335340778272, -187500.02235174447, -187500.02235174447, -0.19, -0.77, -0.63, 192.0, 0.0, 0.0, 0.0, 0.0, 0.0, 0.0, 0.0, 0.0, 0.0, 1.6776146586149387E9, 0.0, 2023-02-28 12:04:18.614
102.0, 27280.482921657913, -4367.776735756009, 14776.626500681223, -2865.672453126008, 15146.838444094474, 7740.0291252170955, -187500.02235174447, -187500.02235174447, -0.19, -0.77, -0.63, 192.0, 0.0, 0.0, 0.0, 0.0, 0.0, 0.0, 0.0, 0.0, 0.0, 1.67761465861796E9, 0.0, 2023-02-28 12:04:18.617
103.0, 27401.18234171657, -4365.630968288299, 15615.018083455336, -2866.8123920932285, 15593.09102214468, 7999.778747532219, -187500.02235174447, -187500.02235174447, -0.19, -0.77, -0.63, 192.0, 0.0, 0.0, 0.0, 0.0, 0.0, 0.0, 0.0, 0.0, 0.0, 1.677614658621944E9, 0.0, 2023-02-28 12:04:18.621
104.0, 27255.694837056977, -4360.199494385659, 14840.619545056767, -2852.954310530938, 15200.39322380939, 7582.583437273913, -187500.02235174447, -187500.02235174447, -0.19, -0.768, -0.624, 192.0, 250.0, 16.0, 232.0, 0.0, 236.0, 128.0, 0.0, 0.0, 0.0, 1.67761465862602E9, 0.0, 2023-02-28 12:04:18.626
105.0, 27128.066376217175, -4357.941968195673, 13918.498327553074, -2849.5344936292763, 14710.66650279361, 7280.9466458495435, -187500.02235174447, -187500.02235174447, -0.19, -0.768, -0.624, 192.0, 0.0, 0.0, 0.0, 0.0, 0.0, 0.0, 0.0, 0.0, 0.0, 1.6776146586300185E9, 0.0, 2023-02-28 12:04:18.630
106.0, 27247.35763637515, -4366.2121136441365, 14555.41128580705, -2863.929017058494, 15030.274096760048, 7649.571615406468, -187500.02235174447, -187500.02235174447, -0.19, -0.768, -0.624, 192.0, 0.0, 0.0, 0.0, 0.0, 0.0, 0.0, 0.0, 0.0, 0.0, 1.6776146586349635E9, 0.0, 2023-02-28 12:04:18.634
107.0, 27397.38254515917, -4365.876837477307, 15577.46715277042, -2868.444069438466, 15572.192141078967, 8010.485233126311, -187500.02235174447, -187500.02235174447, -0.19, -0.768, -0.624, 192.0, 0.0, 0.0, 0.0, 0.0, 0.0, 0.0, 0.0, 0.0, 0.0, 1.677614658638981E9, 0.0, 2023-02-28 12:04:18.638
108.0, 27285.847340327186, -4360.735936252587, 15056.559748239488, -2854.6753948539967, 15312.643684463941, 7676.214894797194, -187500.02235174447, -187500.02235174447, -0.19, -0.768, -0.624, 192.0, 0.0, 0.0, 0.0, 0.0, 0.0, 0.0, 0.0, 0.0, 0.0, 1.6776146586430233E9, 0.0, 2023-02-28 12:04:18.643
109.0, 27126.7029198054, -4356.220883872615, 13985.218284752165, -2847.3663744171113, 14745.088189254784, 7279.694948160047, -187500.02235174447, -187500.02235174447, -0.19, -0.768, -0.624, 192.0, 0.0, 0.0, 0.0, 0.0, 0.0, 0.0, 0.0, 0.0, 0.0, 1.6776146586459544E9, 0.0, 2023-02-28 12:04:18.645
110.0, 27218.076851138696, -4356.310290850436, 14346.89186178349, -2857.08938325517, 14928.841880421864, 7551.11218108084, -187500.02235174447, -187500.02235174447, -0.19, -0.768, -0.624, 192.0, 0.0, 0.0, 0.0, 0.0, 0.0, 0.0, 0.0, 0.0, 0.0, 1.677614658649958E9, 0.0, 2023-02-28 12:04:18.649
111.0, 27397.42724864808, -4356.869084461819, 15480.125305667558, -2863.1914094914687, 15526.50517541232, 7993.564962573643, -187500.02235174447, -187500.02235174447, -0.19, -0.768, -0.624, 192.0, 0.0, 0.0, 0.0, 0.0, 0.0, 0.0, 0.0, 0.0, 0.0, 1.677614658653978E9, 0.0, 2023-02-28 12:04:18.653
112.0, 27325.58874196872, -4356.220883872615, 15247.086017976526, -2852.3731651751, 15415.57346768063, 7771.232160476704, -187500.02235174447, -187500.02235174447, -0.19, -0.768, -0.624, 192.0, 0.0, 0.0, 0.0, 0.0, 0.0, 0.0, 0.0, 0.0, 0.0, 1.6776146586580884E9, 0.0, 2023-02-28 12:04:18.658
113.0, 27147.46769040438, -4351.929348937196, 14092.17138197081, -2842.225473192391, 14807.158983607173, 7311.657942731135, -187500.02235174447, -187500.02235174447, -0.19, -0.768, -0.624, 192.0, 0.0, 0.0, 0.0, 0.0, 0.0, 0.0, 0.0, 0.0, 0.0, 1.6776146586629913E9, 0.0, 2023-02-28 12:04:18.662
114.0, 27198.966109629408, -4349.828284958397, 14159.964222903756, -2850.4285634074886, 14834.785739753932, 7468.14250566274, -187500.02235174447, -187500.02235174447, -0.188, -0.768, -0.63, 192.0, 250.0, 32.0, 232.0, 0.0, 236.0, 80.0, 0.0, 0.0, 0.0, 1.6776146586669848E9, 0.0, 2023-02-28 12:04:18.666
115.0, 27386.363135142703, -4350.364726825324, 15332.827309707083, -2860.5986071346533, 15447.87173841855, 7958.875055179007, -187500.02235174447, -187500.02235174447, -0.188, -0.768, -0.63, 192.0, 0.0, 0.0, 0.0, 0.0, 0.0, 0.0, 0.0, 0.0, 0.0, 1.6776146586709871E9, 0.0, 2023-02-28 12:04:18.670
116.0, 27360.658629019097, -4349.604767513843, 15412.24305775679, -2852.9096070420273, 15501.06889022218, 7860.41562085338, -187500.02235174447, -187500.02235174447, -0.188, -0.768, -0.63, 192.0, 0.0, 0.0, 0.0, 0.0, 0.0, 0.0, 0.0, 0.0, 0.0, 1.6776146586740117E9, 0.0, 2023-02-28 12:04:18.674
117.0, 27168.32186798118, -4348.665994246721, 14255.361468239007, -2841.4878656253654, 14892.855571848819, 7361.815257288845, -187500.02235174447, -187500.02235174447, -0.188, -0.768, -0.63, 192.0, 0.0, 0.0, 0.0, 0.0, 0.0, 0.0, 0.0, 0.0, 0.0, 1.6776146586780393E9, 0.0, 2023-02-28 12:04:18.678
118.0, 27160.94579231093, -4352.264625104025, 14025.563183493994, -2848.3722029176, 14760.935576073596, 7387.989150046009, -187500.02235174447, -187500.02235174447, -0.188, -0.768, -0.63, 192.0, 0.0, 0.0, 0.0, 0.0, 0.0, 0.0, 0.0, 0.0, 0.0, 1.677614658682016E9, 0.0, 2023-02-28 12:04:18.682
119.0, 27349.952143425005, -4354.499799549556, 15153.43220870879, -2861.09034551267, 15350.328725615589, 7892.624484613477, -187500.02235174447, -187500.02235174447, -0.188, -0.768, -0.63, 192.0, 0.0, 0.0, 0.0, 0.0, 0.0, 0.0, 0.0, 0.0, 0.0, 1.677614658686036E9, 0.0, 2023-02-28 12:04:18.686
120.0, 27388.08421946576, -4351.1246861368045, 15533.210698748911, -2856.4635344104213, 15558.691687427961, 7932.164720554915, -187500.02235174447, -187500.02235174447, -0.188, -0.768, -0.63, 192.0, 0.0, 0.0, 0.0, 0.0, 0.0, 0.0, 0.0, 0.0, 0.0, 1.677614658691044E9, 0.0, 2023-02-28 12:04:18.691
121.0, 27196.77563867279, -4349.470657047112, 14451.363915367594, -2844.6394615935637, 14988.610445095355, 7434.27961281295, -187500.02235174447, -187500.02235174447, -0.188, -0.768, -0.63, 192.0, 0.0, 0.0, 0.0, 0.0, 0.0, 0.0, 0.0, 0.0, 0.0, 1.677614658695054E9, 0.0, 2023-02-28 12:04:18.695
122.0, 27133.073166975162, -4354.633910016288, 13938.905470240768, -2849.445086651455, 14711.448813849547, 7331.059256918342, -187500.02235174447, -187500.02235174447, -0.188, -0.768, -0.63, 192.0, 0.0, 0.0, 0.0, 0.0, 0.0, 0.0, 0.0, 0.0, 0.0, 1.6776146586990683E9, 0.0, 2023-02-28 12:04:18.699
123.0, 27308.31084350477, -4361.361785097335, 14947.013848664028, -2863.5043339138433, 15238.771169039152, 7811.822928407541, -187500.02235174447, -187500.02235174447, -0.188, -0.768, -0.63, 192.0, 0.0, 0.0, 0.0, 0.0, 0.0, 0.0, 0.0, 0.0, 0.0, 1.67761465870204E9, 0.0, 2023-02-28 12:04:18.702
124.0, 27391.526388111877, -4361.406488586246, 15600.645911770573, -2862.5432089022647, 15590.744088976871, 7976.421174576423, -187500.02235174447, -187500.02235174447, -0.188, -0.768, -0.63, 192.0, 0.0, 0.0, 0.0, 0.0, 0.0, 0.0, 0.0, 0.0, 0.0, 1.6776146587060986E9, 0.0, 2023-02-28 12:04:18.706
125.0, 27220.602598262143, -4358.970148440618, 14666.790028427844, -2849.310976184723, 15107.834650019962, 7509.426177671693, -187500.02235174447, -187500.02235174447, -0.188, -0.772, -0.622, 192.0, 250.0, 32.0, 231.0, 224.0, 236.0, 144.0, 0.0, 0.0, 0.0, 1.677614658710071E9, 0.0, 2023-02-28 12:04:18.710
126.0, 27119.349195879604, -4358.746630996065, 13907.210696603144, -2848.5510168732426, 14700.988197444463, 7290.5131924764155, -187500.02235174447, -187500.02235174447, -0.188, -0.772, -0.622, 192.0, 0.0, 0.0, 0.0, 0.0, 0.0, 0.0, 0.0, 0.0, 0.0, 1.6776146587140362E9, 0.0, 2023-02-28 12:04:18.714
127.0, 27283.768628092843, -4361.138267652782, 14728.39143614667, -2862.5208571578096, 15124.531403128078, 7722.728875008688, -187500.02235174447, -187500.02235174447, -0.188, -0.772, -0.622, 192.0, 0.0, 0.0, 0.0, 0.0, 0.0, 0.0, 0.0, 0.0, 0.0, 1.6776146587190259E9, 0.0, 2023-02-28 12:04:18.719
128.0, 27419.309606469826, -4356.2879391059805, 15610.905362475558, -2863.3925751915667, 15593.783926222794, 8011.021674993239, -187500.02235174447, -187500.02235174447, -0.188, -0.772, -0.622, 192.0, 0.0, 0.0, 0.0, 0.0, 0.0, 0.0, 0.0, 0.0, 0.0, 1.6776146587230484E9, 0.0, 2023-02-28 12:04:18.723
129.0, 27268.86001454115, -4353.67278500471, 14887.737022368554, -2850.1156389851144, 15223.303761876079, 7608.399702119792, -187500.02235174447, -187500.02235174447, -0.188, -0.772, -0.622, 192.0, 0.0, 0.0, 0.0, 0.0, 0.0, 0.0, 0.0, 0.0, 0.0, 1.6776146587270849E9, 0.0, 2023-02-28 12:04:18.727
130.0, 27120.623245313556, -4355.438572816679, 13929.540089313996, -2846.4276011499887, 14713.505174339436, 7280.968997593999, -187500.02235174447, -187500.02235174447, -0.188, -0.772, -0.622, 192.0, 0.0, 0.0, 0.0, 0.0, 0.0, 0.0, 0.0, 0.0, 0.0, 1.6776146587300768E9, 0.0, 2023-02-28 12:04:18.730
131.0, 27234.34892110216, -4359.193665885171, 14507.44444220596, -2858.832819322684, 15006.715358104153, 7634.640650110323, -187500.02235174447, -187500.02235174447, -0.188, -0.772, -0.622, 192.0, 0.0, 0.0, 0.0, 0.0, 0.0, 0.0, 0.0, 0.0, 0.0, 1.6776146587341523E9, 0.0, 2023-02-28 12:04:18.734
132.0, 27397.38254515917, -4358.321947851414, 15560.636289195572, -2864.2642932253234, 15569.062896855225, 8016.63196285152, -187500.02235174447, -187500.02235174447, -0.188, -0.772, -0.622, 192.0, 0.0, 0.0, 0.0, 0.0, 0.0, 0.0, 0.0, 0.0, 0.0, 1.6776146587380655E9, 0.0, 2023-02-28 12:04:18.738
133.0, 27310.277797016835, -4351.169389625716, 15106.98528373066, -2852.015537263815, 15338.392894076454, 7708.423758557291, -187500.02235174447, -187500.02235174447, -0.188, -0.772, -0.622, 192.0, 0.0, 0.0, 0.0, 0.0, 0.0, 0.0, 0.0, 0.0, 0.0, 1.6776146587422376E9, 0.0, 2023-02-28 12:04:18.742
134.0, 27141.566829868178, -4351.325851836902, 14010.2075350532, -2844.505351126832, 14760.175616762117, 7291.563724465815, -187500.02235174447, -187500.02235174447, -0.188, -0.772, -0.622, 192.0, 0.0, 0.0, 0.0, 0.0, 0.0, 0.0, 0.0, 0.0, 0.0, 1.6776146587461452E9, 0.0, 2023-02-28 12:04:18.746
135.0, 27203.81643817621, -4361.4511920751565, 14305.876410708, -2857.536418144276, 14908.591199945355, 7533.119026794318, -187500.02235174447, -187500.02235174447, -0.186, -0.772, -0.618, 192.0, 250.0, 48.0, 231.0, 224.0, 236.0, 176.0, 0.0, 0.0, 0.0, 1.6776146587510853E9, 0.0, 2023-02-28 12:04:18.751
136.0, 27388.307736910312, -4363.373442098313, 15455.873662933549, -2866.968854304416, 15512.960018272403, 7988.3793578600125, -187500.02235174447, -187500.02235174447, -0.186, -0.772, -0.618, 192.0, 0.0, 0.0, 0.0, 0.0, 0.0, 0.0, 0.0, 0.0, 0.0, 1.6776146587541316E9, 0.0, 2023-02-28 12:04:18.754
137.0, 27339.491527019924, -4357.852561217852, 15295.276379022167, -2855.7259268433963, 15438.86398540306, 7796.064948566551, -187500.02235174447, -187500.02235174447, -0.186, -0.772, -0.618, 192.0, 0.0, 0.0, 0.0, 0.0, 0.0, 0.0, 0.0, 0.0, 0.0, 1.677614658758088E9, 0.0, 2023-02-28 12:04:18.758
138.0, 27149.121719494073, -4354.723316994109, 14132.024542334622, -2845.064144738215, 14826.31442860537, 7324.666658004125, -187500.02235174447, -187500.02235174447, -0.186, -0.772, -0.618, 192.0, 0.0, 0.0, 0.0, 0.0, 0.0, 0.0, 0.0, 0.0, 0.0, 1.677614658762086E9, 0.0, 2023-02-28 12:04:18.762
139.0, 27185.890339123052, -4357.606692028844, 14134.41617899134, -2853.8483803091503, 14818.066634901363, 7454.440886311637, -187500.02235174447, -187500.02235174447, -0.186, -0.772, -0.618, 192.0, 0.0, 0.0, 0.0, 0.0, 0.0, 0.0, 0.0, 0.0, 0.0, 1.6776146587660823E9, 0.0, 2023-02-28 12:04:18.766
140.0, 27406.94909178604, -4359.998328685561, 15307.122803583481, -2866.0077292928377, 15434.281877789723, 7950.850778919552, -187500.02235174447, -187500.02235174447, -0.186, -0.772, -0.618, 192.0, 0.0, 0.0, 0.0, 0.0, 0.0, 0.0, 0.0, 0.0, 0.0, 1.6776146587701058E9, 0.0, 2023-02-28 12:04:18.770
141.0, 27395.28148118037, -4357.092601906372, 15453.72789546584, -2858.9445780449605, 15518.346788686133, 7881.627426341466, -187500.02235174447, -187500.02235174447, -0.186, -0.772, -0.618, 192.0, 0.0, 0.0, 0.0, 0.0, 0.0, 0.0, 0.0, 0.0, 0.0, 1.6776146587741497E9, 0.0, 2023-02-28 12:04:18.774
142.0, 27179.743609397843, -4353.739840238076, 14304.468250807317, -2846.2040837054356, 14916.548420971445, 7380.858943564766, -187500.02235174447, -187500.02235174447, -0.186, -0.772, -0.618, 192.0, 0.0, 0.0, 0.0, 0.0, 0.0, 0.0, 0.0, 0.0, 0.0, 1.6776146587792213E9, 0.0, 2023-02-28 12:04:18.779
143.0, 27171.339353482646, -4354.969186183118, 14010.274590286564, -2851.188522718969, 14755.235881237493, 7378.98139703052, -187500.02235174447, -187500.02235174447, -0.186, -0.772, -0.618, 192.0, 0.0, 0.0, 0.0, 0.0, 0.0, 0.0, 0.0, 0.0, 0.0, 1.6776146587821872E9, 0.0, 2023-02-28 12:04:18.782
144.0, 27371.387466357646, -4355.460924561135, 15116.685940824264, -2862.5655606467203, 15335.55422253063, 7880.621597840977, -187500.02235174447, -187500.02235174447, -0.186, -0.772, -0.618, 192.0, 0.0, 0.0, 0.0, 0.0, 0.0, 0.0, 0.0, 0.0, 0.0, 1.6776146587861493E9, 0.0, 2023-02-28 12:04:18.786
