%OpenBCI Raw EEG Data
%Number of channels = 8
%Sample Rate = 250 Hz
%Board = OpenBCI_GUI$BoardCytonSerial
Sample Index, EXG Channel 0, EXG Channel 1, EXG Channel 2, EXG Channel 3, EXG Channel 4, EXG Channel 5, EXG Channel 6, EXG Channel 7, Accel Channel 0, Accel Channel 1, Accel Channel 2, Other, Other, Other, Other, Other, Other, Other, Analog Channel 0, Analog Channel 1, Analog Channel 2, Timestamp, Other, Timestamp (Formatted)
171.0, 25617.200209760693, -4294.70888313161, 14972.450133854169, -3158.9273403796365, 14799.335873047814, 7518.925669065198, -187500.02235174447, -187500.02235174447, 0.0, 0.0, 0.0, 192.0, 0.0, 0.0, 0.0, 0.0, 0.0, 0.0, 0.0, 0.0, 0.0, 1.677615237302928E9, 0.0, 2023-02-28 12:13:57.302
172.0, 25676.164111633792, -4296.631133154766, 15115.501298368134, -3168.3374247953207, 14869.632109359754, 7651.426810196258, -187500.02235174447, -187500.02235174447, 0.0, 0.0, 0.0, 192.0, 0.0, 0.0, 0.0, 0.0, 0.0, 0.0, 0.0, 0.0, 0.0, 1.6776152373029604E9, 0.0, 2023-02-28 12:13:57.302
173.0, 25814.49905806769, -4298.039293055451, 15936.43616872265, -3176.5405150104184, 15290.40369873091, 7989.832221249608, -187500.02235174447, -187500.02235174447, 0.0, 0.0, 0.0, 192.0, 0.0, 0.0, 0.0, 0.0, 0.0, 0.0, 0.0, 0.0, 0.0, 1.677615237302976E9, 0.0, 2023-02-28 12:13:57.302
174.0, 25780.47970300671, -4299.358045978313, 15896.650063592204, -3169.075032362346, 15273.528131667154, 7883.437917642345, -187500.02235174447, -187500.02235174447, 0.0, 0.0, 0.0, 192.0, 0.0, 0.0, 0.0, 0.0, 0.0, 0.0, 0.0, 0.0, 0.0, 1.677615237302991E9, 0.0, 2023-02-28 12:13:57.302
0.0, 0.0, 0.0, 0.0, 0.0, 0.0, 0.0, 0.0, 0.0, 0.0, 0.0, 0.0, 192.0, 0.0, 0.0, 0.0, 0.0, 0.0, 0.0, 0.0, 0.0, 0.0, 1.6776152373965938E9, 0.0, 2023-02-28 12:13:57.396
1.0, 25663.557727761, -4329.845825415352, 15917.995979547022, -3103.6738280861173, 15105.197144174237, 7755.29536668007, -187500.02235174447, -187500.02235174447, -0.192, -0.768, -0.632, 192.0, 250.0, 0.0, 232.0, 0.0, 236.0, 64.0, 0.0, 0.0, 0.0, 1.677615237413515E9, 0.0, 2023-02-28 12:13:57.413
2.0, 25520.52891499149, -4329.309383548425, 15115.27778092358, -3094.688426815084, 14692.852162462732, 7424.020162107964, -187500.02235174447, -187500.02235174447, -0.192, -0.768, -0.632, 192.0, 0.0, 0.0, 0.0, 0.0, 0.0, 0.0, 0.0, 0.0, 0.0, 1.677615237416514E9, 0.0, 2023-02-28 12:13:57.416
3.0, 25528.016749384016, -4334.472636517601, 15019.277038488037, -3103.2267931970114, 14643.052475816308, 7454.887921200743, -187500.02235174447, -187500.02235174447, -0.192, -0.768, -0.632, 192.0, 0.0, 0.0, 0.0, 0.0, 0.0, 0.0, 0.0, 0.0, 0.0, 1.6776152374205222E9, 0.0, 2023-02-28 12:13:57.420
4.0, 25666.575213262466, -4335.813741184919, 15806.170202037121, -3113.1956712240785, 15045.875614389852, 7804.692721926299, -187500.02235174447, -187500.02235174447, -0.192, -0.768, -0.632, 192.0, 0.0, 0.0, 0.0, 0.0, 0.0, 0.0, 0.0, 0.0, 0.0, 1.677615237424467E9, 0.0, 2023-02-28 12:13:57.424
5.0, 25679.673335513275, -4332.975069639096, 16009.906352747244, -3107.5183281324303, 15151.644069152364, 7816.449739509791, -187500.02235174447, -187500.02235174447, -0.192, -0.768, -0.632, 192.0, 0.0, 0.0, 0.0, 0.0, 0.0, 0.0, 0.0, 0.0, 0.0, 1.6776152374284725E9, 0.0, 2023-02-28 12:13:57.428
6.0, 25542.210107113136, -4332.19275858316, 15244.40380864189, -3097.9070780166485, 14755.235881237493, 7471.38350860876, -187500.02235174447, -187500.02235174447, -0.192, -0.768, -0.632, 192.0, 0.0, 0.0, 0.0, 0.0, 0.0, 0.0, 0.0, 0.0, 0.0, 1.6776152374315429E9, 0.0, 2023-02-28 12:13:57.431
7.0, 25517.399670767747, -4334.696153962154, 14949.584299276388, -3101.371598407221, 14598.46074562797, 7429.205766821596, -187500.02235174447, -187500.02235174447, -0.192, -0.768, -0.632, 192.0, 0.0, 0.0, 0.0, 0.0, 0.0, 0.0, 0.0, 0.0, 0.0, 1.6776152374355893E9, 0.0, 2023-02-28 12:13:57.435
8.0, 25647.464471753177, -4340.284090075981, 15668.774028870348, -3112.8603950572488, 14963.688250027688, 7757.418782403324, -187500.02235174447, -187500.02235174447, -0.178, -0.75, -0.638, 192.0, 250.0, 112.0, 232.0, 144.0, 236.0, 16.0, 0.0, 0.0, 0.0, 1.6776152374404964E9, 0.0, 2023-02-28 12:13:57.440
9.0, 25698.80642876702, -4340.105276120338, 16069.429048231728, -3111.6757526011174, 15174.509903730144, 7840.187292121326, -187500.02235174447, -187500.02235174447, -0.178, -0.75, -0.638, 192.0, 0.0, 0.0, 0.0, 0.0, 0.0, 0.0, 0.0, 0.0, 0.0, 1.677615237444516E9, 0.0, 2023-02-28 12:13:57.444
10.0, 25574.374267384323, -4337.177197596693, 15392.37235693602, -3099.561107106341, 14828.393140839713, 7523.44072144517, -187500.02235174447, -187500.02235174447, -0.178, -0.75, -0.638, 192.0, 0.0, 0.0, 0.0, 0.0, 0.0, 0.0, 0.0, 0.0, 0.0, 1.6776152374484913E9, 0.0, 2023-02-28 12:13:57.448
11.0, 25499.853551370332, -4338.965337153118, 14915.743758171055, -3100.7681013069277, 14577.830085495722, 7396.281647238929, -187500.02235174447, -187500.02235174447, -0.178, -0.75, -0.638, 192.0, 0.0, 0.0, 0.0, 0.0, 0.0, 0.0, 0.0, 0.0, 0.0, 1.6776152374525115E9, 0.0, 2023-02-28 12:13:57.452
12.0, 25610.15941025727, -4340.172331353704, 15518.25738170831, -3111.6757526011174, 14884.09368802234, 7694.431566528269, -187500.02235174447, -187500.02235174447, -0.178, -0.75, -0.638, 192.0, 0.0, 0.0, 0.0, 0.0, 0.0, 0.0, 0.0, 0.0, 0.0, 1.677615237455539E9, 0.0, 2023-02-28 12:13:57.455
13.0, 25693.956100220217, -4341.2005115986485, 16088.025699618544, -3113.016857268436, 15185.126982346414, 7867.255254656703, -187500.02235174447, -187500.02235174447, -0.178, -0.75, -0.638, 192.0, 0.0, 0.0, 0.0, 0.0, 0.0, 0.0, 0.0, 0.0, 0.0, 1.677615237459582E9, 0.0, 2023-02-28 12:13:57.459
14.0, 25588.187645457703, -4338.04891563045, 15539.111559285113, -3101.952743763059, 14910.647560435244, 7581.823477962432, -187500.02235174447, -187500.02235174447, -0.178, -0.75, -0.638, 192.0, 0.0, 0.0, 0.0, 0.0, 0.0, 0.0, 0.0, 0.0, 0.0, 1.6776152374635282E9, 0.0, 2023-02-28 12:13:57.463
15.0, 25501.28406301547, -4334.316174306414, 14911.742795913553, -3098.2200024390227, 14591.866981013654, 7372.1641149716515, -187500.02235174447, -187500.02235174447, -0.178, -0.75, -0.638, 192.0, 0.0, 0.0, 0.0, 0.0, 0.0, 0.0, 0.0, 0.0, 0.0, 1.6776152374686265E9, 0.0, 2023-02-28 12:13:57.468
16.0, 25589.841674547395, -4340.462904031623, 15364.32091764461, -3109.9546682780588, 14818.826594212842, 7628.8515482963985, -187500.02235174447, -187500.02235174447, -0.178, -0.75, -0.638, 192.0, 0.0, 0.0, 0.0, 0.0, 0.0, 0.0, 0.0, 0.0, 0.0, 1.6776152374725497E9, 0.0, 2023-02-28 12:13:57.472
17.0, 25694.85016999843, -4346.564930267922, 16066.478617963627, -3116.5037294034637, 15177.795610165074, 7879.504010618211, -187500.02235174447, -187500.02235174447, -0.178, -0.75, -0.638, 192.0, 0.0, 0.0, 0.0, 0.0, 0.0, 0.0, 0.0, 0.0, 0.0, 1.6776152374765785E9, 0.0, 2023-02-28 12:13:57.476
18.0, 25621.357634229378, -4342.72043022161, 15689.717613424971, -3106.3783891652097, 14990.01860499604, 7641.837911824931, -187500.02235174447, -187500.02235174447, -0.18, -0.746, -0.646, 192.0, 250.0, 96.0, 232.0, 176.0, 235.0, 208.0, 0.0, 0.0, 0.0, 1.6776152374805925E9, 0.0, 2023-02-28 12:13:57.480
19.0, 25511.029423597985, -4339.904110420241, 14955.619270279321, -3101.3492466627654, 14612.005902767885, 7366.464420135549, -187500.02235174447, -187500.02235174447, -0.18, -0.746, -0.646, 192.0, 0.0, 0.0, 0.0, 0.0, 0.0, 0.0, 0.0, 0.0, 0.0, 1.6776152374844995E9, 0.0, 2023-02-28 12:13:57.484
20.0, 25572.54142433899, -4340.082924375883, 15225.315418877057, -3109.194708966578, 14743.456511909548, 7570.088812123396, -187500.02235174447, -187500.02235174447, -0.18, -0.746, -0.646, 192.0, 0.0, 0.0, 0.0, 0.0, 0.0, 0.0, 0.0, 0.0, 0.0, 1.6776152374875684E9, 0.0, 2023-02-28 12:13:57.487
21.0, 25696.70536478822, -4339.747648209053, 16003.804326510946, -3115.5873078807963, 15142.725723114698, 7870.384498880447, -187500.02235174447, -187500.02235174447, -0.18, -0.746, -0.646, 192.0, 0.0, 0.0, 0.0, 0.0, 0.0, 0.0, 0.0, 0.0, 0.0, 1.6776152374915922E9, 0.0, 2023-02-28 12:13:57.491
22.0, 25644.491689740622, -4335.746685951553, 15822.151699322665, -3106.110168231746, 15057.096190106415, 7705.38392131137, -187500.02235174447, -187500.02235174447, -0.18, -0.746, -0.646, 192.0, 0.0, 0.0, 0.0, 0.0, 0.0, 0.0, 0.0, 0.0, 0.0, 1.6776152374955544E9, 0.0, 2023-02-28 12:13:57.495
23.0, 25517.06439460092, -4335.970203396107, 15027.703646147687, -3098.912906517137, 14644.170063039073, 7389.7772896024335, -187500.02235174447, -187500.02235174447, -0.18, -0.746, -0.646, 192.0, 0.0, 0.0, 0.0, 0.0, 0.0, 0.0, 0.0, 0.0, 0.0, 1.6776152375006394E9, 0.0, 2023-02-28 12:13:57.500
24.0, 25550.256735117047, -4341.759305210031, 15103.69957729573, -3107.1607002211454, 14678.234121588961, 7505.671084603201, -187500.02235174447, -187500.02235174447, -0.18, -0.746, -0.646, 192.0, 0.0, 0.0, 0.0, 0.0, 0.0, 0.0, 0.0, 0.0, 0.0, 1.67761523750459E9, 0.0, 2023-02-28 12:13:57.504
25.0, 25689.217530395694, -4341.602842998844, 15907.088328252832, -3114.3132584468435, 15098.64808304883, 7835.538129274622, -187500.02235174447, -187500.02235174447, -0.18, -0.746, -0.646, 192.0, 0.0, 0.0, 0.0, 0.0, 0.0, 0.0, 0.0, 0.0, 0.0, 1.677615237508552E9, 0.0, 2023-02-28 12:13:57.508
26.0, 25675.7617802336, -4339.166502853215, 15934.62567742177, -3107.786549065894, 15119.926943770284, 7762.693794094777, -187500.02235174447, -187500.02235174447, -0.18, -0.746, -0.646, 192.0, 0.0, 0.0, 0.0, 0.0, 0.0, 0.0, 0.0, 0.0, 0.0, 1.6776152375116296E9, 0.0, 2023-02-28 12:13:57.511
27.0, 25537.96327566663, -4338.339488308369, 15135.573164889, -3098.5999820947627, 14705.302084124338, 7428.08817959883, -187500.02235174447, -187500.02235174447, -0.18, -0.746, -0.646, 192.0, 0.0, 0.0, 0.0, 0.0, 0.0, 0.0, 0.0, 0.0, 0.0, 1.6776152375155451E9, 0.0, 2023-02-28 12:13:57.515
28.0, 25528.75435695104, -4343.301575577447, 15004.30136970298, -3105.081987986802, 14633.821205356266, 7454.954976434109, -187500.02235174447, -187500.02235174447, -0.186, -0.748, -0.644, 192.0, 250.0, 48.0, 232.0, 160.0, 235.0, 224.0, 0.0, 0.0, 0.0, 1.6776152375196502E9, 0.0, 2023-02-28 12:13:57.519
29.0, 25664.98823940614, -4344.217997100115, 15782.589111636773, -3115.4755491585197, 15031.861070616374, 7790.298198497081, -187500.02235174447, -187500.02235174447, -0.186, -0.748, -0.644, 192.0, 0.0, 0.0, 0.0, 0.0, 0.0, 0.0, 0.0, 0.0, 0.0, 1.6776152375235965E9, 0.0, 2023-02-28 12:13:57.523
30.0, 25683.74135300414, -4341.580491254388, 16021.417501141728, -3110.6699241006286, 15159.3777727339, 7810.705341184776, -187500.02235174447, -187500.02235174447, -0.186, -0.748, -0.644, 192.0, 0.0, 0.0, 0.0, 0.0, 0.0, 0.0, 0.0, 0.0, 0.0, 1.677615237528565E9, 0.0, 2023-02-28 12:13:57.528
31.0, 25555.352932852857, -4336.23842432957, 15268.275471720157, -3099.270534428422, 14772.044393067885, 7472.545799320436, -187500.02235174447, -187500.02235174447, -0.186, -0.748, -0.644, 192.0, 0.0, 0.0, 0.0, 0.0, 0.0, 0.0, 0.0, 0.0, 0.0, 1.677615237532612E9, 0.0, 2023-02-28 12:13:57.532
32.0, 25527.636769728277, -4336.19372084066, 14940.934174172186, -3102.690351330084, 14595.934998504521, 7415.258278281484, -187500.02235174447, -187500.02235174447, -0.186, -0.748, -0.644, 192.0, 0.0, 0.0, 0.0, 0.0, 0.0, 0.0, 0.0, 0.0, 0.0, 1.677615237535708E9, 0.0, 2023-02-28 12:13:57.535
33.0, 25656.42752127976, -4333.958546395129, 15642.041342501801, -3112.3910084236873, 14959.374363347813, 7744.611232830433, -187500.02235174447, -187500.02235174447, -0.186, -0.748, -0.644, 192.0, 0.0, 0.0, 0.0, 0.0, 0.0, 0.0, 0.0, 0.0, 0.0, 1.6776152375395987E9, 0.0, 2023-02-28 12:13:57.539
34.0, 25710.384632394867, -4329.041162614962, 16073.206493044674, -3109.7982060668714, 15185.842238168985, 7845.194082879315, -187500.02235174447, -187500.02235174447, -0.186, -0.748, -0.644, 192.0, 0.0, 0.0, 0.0, 0.0, 0.0, 0.0, 0.0, 0.0, 0.0, 1.677615237544671E9, 0.0, 2023-02-28 12:13:57.544
35.0, 25588.813494302452, -4325.129607335282, 15417.138089792501, -3097.9294297611036, 14852.42126612917, 7527.218166258117, -187500.02235174447, -187500.02235174447, -0.186, -0.748, -0.644, 192.0, 0.0, 0.0, 0.0, 0.0, 0.0, 0.0, 0.0, 0.0, 0.0, 1.677615237548679E9, 0.0, 2023-02-28 12:13:57.548
36.0, 25517.511429490023, -4329.421142270701, 14914.156784314728, -3098.5999820947627, 14582.74746927589, 7394.448804193593, -187500.02235174447, -187500.02235174447, -0.186, -0.748, -0.644, 192.0, 0.0, 0.0, 0.0, 0.0, 0.0, 0.0, 0.0, 0.0, 0.0, 1.6776152375515635E9, 0.0, 2023-02-28 12:13:57.551
37.0, 25627.45966046568, -4335.970203396107, 15490.49651509482, -3110.5134618894413, 14877.343461196837, 7684.932075134764, -187500.02235174447, -187500.02235174447, -0.186, -0.748, -0.644, 192.0, 0.0, 0.0, 0.0, 0.0, 0.0, 0.0, 0.0, 0.0, 0.0, 1.6776152375556455E9, 0.0, 2023-02-28 12:13:57.555
38.0, 25717.201914453737, -4335.210244084626, 16085.432897261728, -3112.8380433127936, 15194.917046417839, 7858.26985338567, -187500.02235174447, -187500.02235174447, -0.194, -0.76, -0.642, 192.0, 249.0, 240.0, 232.0, 64.0, 235.0, 240.0, 0.0, 0.0, 0.0, 1.677615237559657E9, 0.0, 2023-02-28 12:13:57.559
39.0, 25608.237160234115, -4338.965337153118, 15567.475922998898, -3103.8749937862153, 14927.970162388106, 7577.8448674493875, -187500.02235174447, -187500.02235174447, -0.194, -0.76, -0.642, 192.0, 0.0, 0.0, 0.0, 0.0, 0.0, 0.0, 0.0, 0.0, 0.0, 1.6776152375636525E9, 0.0, 2023-02-28 12:13:57.563
40.0, 25509.084821830373, -4341.513436021022, 14921.778729173986, -3101.438653640587, 14590.369414135148, 7369.973644015032, -187500.02235174447, -187500.02235174447, -0.194, -0.76, -0.642, 192.0, 0.0, 0.0, 0.0, 0.0, 0.0, 0.0, 0.0, 0.0, 0.0, 1.6776152375687385E9, 0.0, 2023-02-28 12:13:57.568
41.0, 25602.202189231182, -4342.0275261434945, 15341.768007489207, -3110.6922758450837, 14803.292131816404, 7620.670809825756, -187500.02235174447, -187500.02235174447, -0.194, -0.76, -0.642, 192.0, 0.0, 0.0, 0.0, 0.0, 0.0, 0.0, 0.0, 0.0, 0.0, 1.6776152375726616E9, 0.0, 2023-02-28 12:13:57.572
42.0, 25714.050318485537, -4342.675726732698, 16058.297879492984, -3115.788473580894, 15173.504075229655, 7876.061841972094, -187500.02235174447, -187500.02235174447, -0.194, -0.76, -0.642, 192.0, 0.0, 0.0, 0.0, 0.0, 0.0, 0.0, 0.0, 0.0, 0.0, 1.6776152375766625E9, 0.0, 2023-02-28 12:13:57.576
43.0, 25631.997064590105, -4341.133456365283, 15715.042139892834, -3106.691313587584, 14997.10410798837, 7657.730002132655, -187500.02235174447, -187500.02235174447, -0.194, -0.76, -0.642, 192.0, 0.0, 0.0, 0.0, 0.0, 0.0, 0.0, 0.0, 0.0, 0.0, 1.6776152375796633E9, 0.0, 2023-02-28 12:13:57.579
44.0, 25514.538647477468, -4339.747648209053, 14968.292709385481, -3100.5445838623746, 14614.106966746685, 7378.824934819333, -187500.02235174447, -187500.02235174447, -0.194, -0.76, -0.642, 192.0, 0.0, 0.0, 0.0, 0.0, 0.0, 0.0, 0.0, 0.0, 0.0, 1.677615237583592E9, 0.0, 2023-02-28 12:13:57.583
45.0, 25576.855311018862, -4342.452209288145, 15204.349482577978, -3109.8652613002378, 14728.033808235385, 7556.811875916944, -187500.02235174447, -187500.02235174447, -0.194, -0.76, -0.642, 192.0, 0.0, 0.0, 0.0, 0.0, 0.0, 0.0, 0.0, 0.0, 0.0, 1.6776152375876913E9, 0.0, 2023-02-28 12:13:57.587
46.0, 25703.075611957982, -4344.754438967042, 15994.036614183977, -3117.688371859595, 15133.963839288217, 7859.230978397248, -187500.02235174447, -187500.02235174447, -0.194, -0.76, -0.642, 192.0, 0.0, 0.0, 0.0, 0.0, 0.0, 0.0, 0.0, 0.0, 0.0, 1.677615237591628E9, 0.0, 2023-02-28 12:13:57.591
47.0, 25655.30993405699, -4340.395848798257, 15848.258536846464, -3108.255935699455, 15072.630652502854, 7708.133185879373, -187500.02235174447, -187500.02235174447, -0.194, -0.76, -0.642, 192.0, 0.0, 0.0, 0.0, 0.0, 0.0, 0.0, 0.0, 0.0, 0.0, 1.6776152375966692E9, 0.0, 2023-02-28 12:13:57.596
48.0, 25526.988569139074, -4337.490122019068, 15048.580175468944, -3100.164604206634, 14657.268185289882, 7393.711196626568, -187500.02235174447, -187500.02235174447, -0.188, -0.756, -0.638, 192.0, 250.0, 32.0, 232.0, 96.0, 236.0, 16.0, 0.0, 0.0, 0.0, 1.677615237600695E9, 0.0, 2023-02-28 12:13:57.600
49.0, 25561.67847653371, -4342.519264521511, 15083.471248563677, -3107.630086854707, 14670.656880218612, 7495.7245583205895, -187500.02235174447, -187500.02235174447, -0.188, -0.756, -0.638, 192.0, 0.0, 0.0, 0.0, 0.0, 0.0, 0.0, 0.0, 0.0, 0.0, 1.6776152376047275E9, 0.0, 2023-02-28 12:13:57.604
50.0, 25703.075611957982, -4346.05084014545, 15885.205970431087, -3115.9002323031705, 15085.952292198217, 7835.73929497472, -187500.02235174447, -187500.02235174447, -0.188, -0.756, -0.638, 192.0, 0.0, 0.0, 0.0, 0.0, 0.0, 0.0, 0.0, 0.0, 0.0, 1.677615237607768E9, 0.0, 2023-02-28 12:13:57.607
51.0, 25688.88225422886, -4345.648508745255, 15967.438038282162, -3110.04407525588, 15135.841385822463, 7776.820096590531, -187500.02235174447, -187500.02235174447, -0.188, -0.756, -0.638, 192.0, 0.0, 0.0, 0.0, 0.0, 0.0, 0.0, 0.0, 0.0, 0.0, 1.6776152376117823E9, 0.0, 2023-02-28 12:13:57.611
52.0, 25550.681418261698, -4345.402639556246, 15175.851008397462, -3101.729226318506, 14725.418654134113, 7430.368057533272, -187500.02235174447, -187500.02235174447, -0.188, -0.756, -0.638, 192.0, 0.0, 0.0, 0.0, 0.0, 0.0, 0.0, 0.0, 0.0, 0.0, 1.6776152376157093E9, 0.0, 2023-02-28 12:13:57.615
53.0, 25545.8310897149, -4343.413334299724, 14984.922407260228, -3105.596078109274, 14625.059321529785, 7435.374848291261, -187500.02235174447, -187500.02235174447, -0.188, -0.756, -0.638, 192.0, 0.0, 0.0, 0.0, 0.0, 0.0, 0.0, 0.0, 0.0, 0.0, 1.6776152376197076E9, 0.0, 2023-02-28 12:13:57.619
54.0, 25680.90268145832, -4346.319061078913, 15746.692210041549, -3115.743770091983, 15014.963151808162, 7782.005701304162, -187500.02235174447, -187500.02235174447, -0.188, -0.756, -0.638, 192.0, 0.0, 0.0, 0.0, 0.0, 0.0, 0.0, 0.0, 0.0, 0.0, 1.6776152376237016E9, 0.0, 2023-02-28 12:13:57.623
55.0, 25713.692690574255, -4344.486218033579, 16050.966507311645, -3112.0333805124023, 15173.995813607671, 7826.776245448143, -187500.02235174447, -187500.02235174447, -0.188, -0.756, -0.638, 192.0, 0.0, 0.0, 0.0, 0.0, 0.0, 0.0, 0.0, 0.0, 0.0, 1.677615237628723E9, 0.0, 2023-02-28 12:13:57.628
56.0, 25584.544311111487, -4338.518302264011, 15322.456100279822, -3099.5834588507964, 14805.46025102857, 7489.24255242855, -187500.02235174447, -187500.02235174447, -0.188, -0.756, -0.638, 192.0, 0.0, 0.0, 0.0, 0.0, 0.0, 0.0, 0.0, 0.0, 0.0, 1.6776152376317027E9, 0.0, 2023-02-28 12:13:57.631
57.0, 25534.90108667625, -4339.345316808858, 14921.063473351416, -3101.2374879404892, 14596.382033393626, 7395.5887431608135, -187500.02235174447, -187500.02235174447, -0.188, -0.756, -0.638, 192.0, 0.0, 0.0, 0.0, 0.0, 0.0, 0.0, 0.0, 0.0, 0.0, 1.6776152376357195E9, 0.0, 2023-02-28 12:13:57.635
58.0, 25652.292448555523, -4343.972127911106, 15587.301920330754, -3113.486243901997, 14930.76413044502, 7721.387770341369, -187500.02235174447, -187500.02235174447, -0.188, -0.752, -0.646, 192.0, 250.0, 32.0, 232.0, 128.0, 235.0, 208.0, 0.0, 0.0, 0.0, 1.6776152376397784E9, 0.0, 2023-02-28 12:13:57.639
59.0, 25709.870542272394, -4345.827322700897, 16084.315310038963, -3113.9109270466483, 15186.24456956918, 7860.169751664371, -187500.02235174447, -187500.02235174447, -0.188, -0.752, -0.646, 192.0, 0.0, 0.0, 0.0, 0.0, 0.0, 0.0, 0.0, 0.0, 0.0, 1.6776152376438022E9, 0.0, 2023-02-28 12:13:57.643
60.0, 25599.67644210773, -4345.000308156051, 15476.705488765896, -3103.696179830573, 14876.89642630773, 7547.3794397568045, -187500.02235174447, -187500.02235174447, -0.188, -0.752, -0.646, 192.0, 0.0, 0.0, 0.0, 0.0, 0.0, 0.0, 0.0, 0.0, 0.0, 1.6776152376477096E9, 0.0, 2023-02-28 12:13:57.647
61.0, 25521.802964425442, -4345.201473856148, 14907.47361272259, -3101.8409850407825, 14586.815486766754, 7369.8395335483, -187500.02235174447, -187500.02235174447, -0.188, -0.752, -0.646, 192.0, 0.0, 0.0, 0.0, 0.0, 0.0, 0.0, 0.0, 0.0, 0.0, 1.6776152376517239E9, 0.0, 2023-02-28 12:13:57.651
62.0, 25618.943645828207, -4347.660165746232, 15428.313962020155, -3111.51929038993, 14850.878995761752, 7654.42194395327, -187500.02235174447, -187500.02235174447, -0.188, -0.752, -0.646, 192.0, 0.0, 0.0, 0.0, 0.0, 0.0, 0.0, 0.0, 0.0, 0.0, 1.6776152376567774E9, 0.0, 2023-02-28 12:13:57.656
63.0, 25717.201914453737, -4346.05084014545, 16077.967414613655, -3113.3297816908103, 15187.943302147783, 7875.435993127346, -187500.02235174447, -187500.02235174447, -0.188, -0.752, -0.646, 192.0, 0.0, 0.0, 0.0, 0.0, 0.0, 0.0, 0.0, 0.0, 0.0, 1.6776152376597972E9, 0.0, 2023-02-28 12:13:57.659
64.0, 25635.03690183603, -4339.568834253411, 15632.944182508492, -3102.1315577187015, 14970.684346042199, 7609.182013175728, -187500.02235174447, -187500.02235174447, -0.188, -0.752, -0.646, 192.0, 0.0, 0.0, 0.0, 0.0, 0.0, 0.0, 0.0, 0.0, 0.0, 1.6776152376637237E9, 0.0, 2023-02-28 12:13:57.663
65.0, 25531.458918030134, -4336.417238285213, 14933.826319435397, -3098.0188367389246, 14606.37326316515, 7369.280739936918, -187500.02235174447, -187500.02235174447, -0.188, -0.752, -0.646, 192.0, 0.0, 0.0, 0.0, 0.0, 0.0, 0.0, 0.0, 0.0, 0.0, 1.6776152376678827E9, 0.0, 2023-02-28 12:13:57.667
66.0, 25610.092355023906, -4338.898281919752, 15280.613634659487, -3107.5406798768854, 14775.30774775836, 7596.419167091748, -187500.02235174447, -187500.02235174447, -0.188, -0.752, -0.646, 192.0, 0.0, 0.0, 0.0, 0.0, 0.0, 0.0, 0.0, 0.0, 0.0, 1.6776152376717577E9, 0.0, 2023-02-28 12:13:57.671
67.0, 25732.24463847216, -4338.831226686386, 16032.146338480276, -3112.078084001313, 15162.886996613384, 7879.012272240195, -187500.02235174447, -187500.02235174447, -0.188, -0.752, -0.646, 192.0, 0.0, 0.0, 0.0, 0.0, 0.0, 0.0, 0.0, 0.0, 0.0, 1.6776152376757863E9, 0.0, 2023-02-28 12:13:57.675
68.0, 25666.754027218107, -4336.5066452630335, 15779.146942990656, -3102.8915170301816, 15037.717227663665, 7693.828069427976, -187500.02235174447, -187500.02235174447, -0.188, -0.758, -0.644, 192.0, 250.0, 32.0, 232.0, 80.0, 235.0, 224.0, 0.0, 0.0, 0.0, 1.6776152376797264E9, 0.0, 2023-02-28 12:13:57.679
69.0, 25539.57260126741, -4336.9760318965955, 15000.613331867855, -3097.3929878941763, 14635.98932456843, 7388.816164590856, -187500.02235174447, -187500.02235174447, -0.188, -0.758, -0.644, 192.0, 0.0, 0.0, 0.0, 0.0, 0.0, 0.0, 0.0, 0.0, 0.0, 1.6776152376847568E9, 0.0, 2023-02-28 12:13:57.684
70.0, 25579.559872097954, -4338.272433075003, 15146.883147583385, -3105.7748920649165, 14701.122307911195, 7532.739047138578, -187500.02235174447, -187500.02235174447, -0.188, -0.758, -0.644, 192.0, 0.0, 0.0, 0.0, 0.0, 0.0, 0.0, 0.0, 0.0, 0.0, 1.6776152376878138E9, 0.0, 2023-02-28 12:13:57.687
71.0, 25704.193199180747, -4341.178159854193, 15952.708238686115, -3114.089741002291, 15111.567391343999, 7852.033716682639, -187500.02235174447, -187500.02235174447, -0.188, -0.758, -0.644, 192.0, 0.0, 0.0, 0.0, 0.0, 0.0, 0.0, 0.0, 0.0, 0.0, 1.6776152376917317E9, 0.0, 2023-02-28 12:13:57.691
72.0, 25670.397361564323, -4343.525093022, 15909.301150953908, -3107.4289211546093, 15093.931864968761, 7743.337183396481, -187500.02235174447, -187500.02235174447, -0.188, -0.758, -0.644, 192.0, 0.0, 0.0, 0.0, 0.0, 0.0, 0.0, 0.0, 0.0, 0.0, 1.6776152376957517E9, 0.0, 2023-02-28 12:13:57.695
73.0, 25545.473461803613, -4340.217034842615, 15098.55867607101, -3098.2870576723885, 14679.262301833905, 7408.686865411623, -187500.02235174447, -187500.02235174447, -0.188, -0.758, -0.644, 192.0, 0.0, 0.0, 0.0, 0.0, 0.0, 0.0, 0.0, 0.0, 0.0, 1.6776152376997552E9, 0.0, 2023-02-28 12:13:57.699
74.0, 25558.258659632047, -4343.748610466553, 15036.97962009664, -3105.2608019424442, 14648.126321807662, 7463.895674216232, -187500.02235174447, -187500.02235174447, -0.188, -0.758, -0.644, 192.0, 0.0, 0.0, 0.0, 0.0, 0.0, 0.0, 0.0, 0.0, 0.0, 1.677615237703936E9, 0.0, 2023-02-28 12:13:57.703
75.0, 25681.6626407698, -4348.084848890883, 15837.127368107722, -3115.117921247235, 15058.571405240466, 7809.1183673284495, -187500.02235174447, -187500.02235174447, -0.188, -0.758, -0.644, 192.0, 0.0, 0.0, 0.0, 0.0, 0.0, 0.0, 0.0, 0.0, 0.0, 1.6776152377077744E9, 0.0, 2023-02-28 12:13:57.707
76.0, 25680.545053547034, -4347.056668645939, 16005.301893389451, -3109.172357222123, 15143.552737659544, 7805.251515537681, -187500.02235174447, -187500.02235174447, -0.188, -0.758, -0.644, 192.0, 0.0, 0.0, 0.0, 0.0, 0.0, 0.0, 0.0, 0.0, 0.0, 1.677615237712809E9, 0.0, 2023-02-28 12:13:57.712
77.0, 25555.710560764142, -4340.61936624281, 15221.113290919458, -3096.7671390494274, 14743.389456676181, 7461.951072448621, -187500.02235174447, -187500.02235174447, -0.188, -0.758, -0.644, 192.0, 0.0, 0.0, 0.0, 0.0, 0.0, 0.0, 0.0, 0.0, 0.0, 1.6776152377158136E9, 0.0, 2023-02-28 12:13:57.715
78.0, 25539.460842545133, -4339.457075531134, 14953.227633622604, -3099.069368728324, 14604.65217884209, 7435.955993647099, -187500.02235174447, -187500.02235174447, -0.194, -0.754, -0.646, 192.0, 249.0, 240.0, 232.0, 112.0, 235.0, 208.0, 0.0, 0.0, 0.0, 1.6776152377199206E9, 0.0, 2023-02-28 12:13:57.719
79.0, 25668.586870263443, -4341.3793255542905, 15699.798250174315, -3110.0664270003354, 14988.20811369516, 7771.9027128103635, -187500.02235174447, -187500.02235174447, -0.194, -0.754, -0.646, 192.0, 0.0, 0.0, 0.0, 0.0, 0.0, 0.0, 0.0, 0.0, 0.0, 1.6776152377237923E9, 0.0, 2023-02-28 12:13:57.723
80.0, 25710.876370772883, -4340.61936624281, 16065.204568529674, -3109.0605984998465, 15179.404935765855, 7830.687800727821, -187500.02235174447, -187500.02235174447, -0.194, -0.754, -0.646, 192.0, 0.0, 0.0, 0.0, 0.0, 0.0, 0.0, 0.0, 0.0, 0.0, 1.677615237727887E9, 0.0, 2023-02-28 12:13:57.727
81.0, 25577.950546497173, -4341.915767421218, 15355.335516373578, -3098.242354183478, 14819.072463401852, 7504.553497380436, -187500.02235174447, -187500.02235174447, -0.194, -0.754, -0.646, 192.0, 0.0, 0.0, 0.0, 0.0, 0.0, 0.0, 0.0, 0.0, 0.0, 1.6776152377318785E9, 0.0, 2023-02-28 12:13:57.731
82.0, 25517.310263789925, -4348.174255868704, 14921.979894874084, -3101.818633296327, 14592.246960669394, 7400.304961240883, -187500.02235174447, -187500.02235174447, -0.194, -0.754, -0.646, 192.0, 0.0, 0.0, 0.0, 0.0, 0.0, 0.0, 0.0, 0.0, 0.0, 1.6776152377358007E9, 0.0, 2023-02-28 12:13:57.735
83.0, 25643.619971706867, -4350.588244269878, 15581.713984216927, -3113.463892157542, 14929.780653688986, 7718.14676739535, -187500.02235174447, -187500.02235174447, -0.194, -0.754, -0.646, 192.0, 0.0, 0.0, 0.0, 0.0, 0.0, 0.0, 0.0, 0.0, 0.0, 1.6776152377409308E9, 0.0, 2023-02-28 12:13:57.740
84.0, 25716.330196419978, -4349.649471002755, 16090.104411852886, -3113.5980026242737, 15190.022014382126, 7852.525455060656, -187500.02235174447, -187500.02235174447, -0.194, -0.754, -0.646, 192.0, 0.0, 0.0, 0.0, 0.0, 0.0, 0.0, 0.0, 0.0, 0.0, 1.6776152377438533E9, 0.0, 2023-02-28 12:13:57.743
85.0, 25600.861084563865, -4346.564930267922, 15474.626776531552, -3101.729226318506, 14877.790496085943, 7537.857596618843, -187500.02235174447, -187500.02235174447, -0.194, -0.754, -0.646, 192.0, 0.0, 0.0, 0.0, 0.0, 0.0, 0.0, 0.0, 0.0, 0.0, 1.6776152377478805E9, 0.0, 2023-02-28 12:13:57.747
86.0, 25520.461859758125, -4347.637814001777, 14911.832202891375, -3100.723397818017, 14590.905856002077, 7365.972681757532, -187500.02235174447, -187500.02235174447, -0.194, -0.754, -0.646, 192.0, 0.0, 0.0, 0.0, 0.0, 0.0, 0.0, 0.0, 0.0, 0.0, 1.6776152377518675E9, 0.0, 2023-02-28 12:13:57.751
87.0, 25625.291541253515, -4352.3540320818465, 15448.542290752208, -3112.0557322568575, 14854.254109174504, 7656.120676531873, -187500.02235174447, -187500.02235174447, -0.194, -0.754, -0.646, 192.0, 0.0, 0.0, 0.0, 0.0, 0.0, 0.0, 0.0, 0.0, 0.0, 1.6776152377557976E9, 0.0, 2023-02-28 12:13:57.755
88.0, 25715.3690714084, -4354.097468149361, 16091.691385709213, -3114.715589847039, 15187.093935858482, 7875.815972783086, -187500.02235174447, -187500.02235174447, -0.186, -0.754, -0.646, 192.0, 250.0, 48.0, 232.0, 112.0, 235.0, 208.0, 0.0, 0.0, 0.0, 1.6776152377598448E9, 0.0, 2023-02-28 12:13:57.759
89.0, 25615.30031148199, -4350.252968103047, 15624.696388804483, -3103.8079385528495, 14959.642584281277, 7607.863260252865, -187500.02235174447, -187500.02235174447, -0.186, -0.754, -0.646, 192.0, 0.0, 0.0, 0.0, 0.0, 0.0, 0.0, 0.0, 0.0, 0.0, 1.6776152377638597E9, 0.0, 2023-02-28 12:13:57.763
90.0, 25512.079955587382, -4349.940043680674, 14932.306400812437, -3100.432825140098, 14603.758109063878, 7367.850228291778, -187500.02235174447, -187500.02235174447, -0.186, -0.754, -0.646, 192.0, 0.0, 0.0, 0.0, 0.0, 0.0, 0.0, 0.0, 0.0, 0.0, 1.6776152377678776E9, 0.0, 2023-02-28 12:13:57.767
91.0, 25590.4898751366, -4354.030412915995, 15295.634006933453, -3111.8992700456706, 14785.88012288572, 7588.350187343382, -187500.02235174447, -187500.02235174447, -0.186, -0.754, -0.646, 192.0, 0.0, 0.0, 0.0, 0.0, 0.0, 0.0, 0.0, 0.0, 0.0, 1.6776152377719069E9, 0.0, 2023-02-28 12:13:57.771
92.0, 25703.880274758372, -4357.204360628648, 16046.898489820778, -3118.3812759377097, 15171.648880439865, 7870.183333180348, -187500.02235174447, -187500.02235174447, -0.186, -0.754, -0.646, 192.0, 0.0, 0.0, 0.0, 0.0, 0.0, 0.0, 0.0, 0.0, 0.0, 1.677615237774873E9, 0.0, 2023-02-28 12:13:57.774
93.0, 25644.625800207355, -4354.522151294012, 15769.893320786157, -3108.6359153551957, 15034.096245061904, 7672.392746495337, -187500.02235174447, -187500.02235174447, -0.186, -0.754, -0.646, 192.0, 0.0, 0.0, 0.0, 0.0, 0.0, 0.0, 0.0, 0.0, 0.0, 1.677615237779907E9, 0.0, 2023-02-28 12:13:57.779
94.0, 25528.53083950649, -4352.443439059668, 14994.086622486904, -3102.5338891188967, 14632.189528011028, 7371.2253417045295, -187500.02235174447, -187500.02235174447, -0.186, -0.754, -0.646, 192.0, 0.0, 0.0, 0.0, 0.0, 0.0, 0.0, 0.0, 0.0, 0.0, 1.6776152377838213E9, 0.0, 2023-02-28 12:13:57.783
95.0, 25585.751305312075, -4349.045973902461, 15162.28349951309, -3109.552336877863, 14715.986217973974, 7525.944116824165, -187500.02235174447, -187500.02235174447, -0.186, -0.754, -0.646, 192.0, 0.0, 0.0, 0.0, 0.0, 0.0, 0.0, 0.0, 0.0, 0.0, 1.677615237787861E9, 0.0, 2023-02-28 12:13:57.787
96.0, 25712.95508300723, -4348.777752968997, 15969.49439877205, -3117.6436683706843, 15124.218478705703, 7848.0327544251395, -187500.02235174447, -187500.02235174447, -0.186, -0.754, -0.646, 192.0, 0.0, 0.0, 0.0, 0.0, 0.0, 0.0, 0.0, 0.0, 0.0, 1.677615237791845E9, 0.0, 2023-02-28 12:13:57.791
97.0, 25671.738466231644, -4347.727220979598, 15897.298264181409, -3109.909964789148, 15093.194257401736, 7734.57529957, -187500.02235174447, -187500.02235174447, -0.186, -0.754, -0.646, 192.0, 0.0, 0.0, 0.0, 0.0, 0.0, 0.0, 0.0, 0.0, 0.0, 1.6776152377958856E9, 0.0, 2023-02-28 12:13:57.795
98.0, 25537.695054733165, -4347.459000046134, 15087.203989887714, -3101.170432707123, 14678.85997043371, 7398.896801340199, -187500.02235174447, -187500.02235174447, -0.186, -0.752, -0.644, 192.0, 250.0, 48.0, 232.0, 128.0, 235.0, 224.0, 0.0, 0.0, 0.0, 1.6776152377999218E9, 0.0, 2023-02-28 12:13:57.799
99.0, 25549.29561010547, -4352.979880926595, 15051.575309225955, -3108.4347496550977, 14653.37898175466, 7467.449601584626, -187500.02235174447, -187500.02235174447, -0.186, -0.752, -0.644, 192.0, 0.0, 0.0, 0.0, 0.0, 0.0, 0.0, 0.0, 0.0, 0.0, 1.677615237802955E9, 0.0, 2023-02-28 12:13:57.802
100.0, 25679.02513492407, -4357.293767606469, 15854.829949716324, -3116.682543359106, 15066.17099835527, 7818.617858721956, -187500.02235174447, -187500.02235174447, -0.186, -0.752, -0.644, 192.0, 0.0, 0.0, 0.0, 0.0, 0.0, 0.0, 0.0, 0.0, 0.0, 1.6776152378078756E9, 0.0, 2023-02-28 12:13:57.807
101.0, 25681.12619890287, -4356.176180383704, 15999.803364253446, -3111.563993878841, 15142.278688225591, 7791.281675253114, -187500.02235174447, -187500.02235174447, -0.186, -0.752, -0.644, 192.0, 0.0, 0.0, 0.0, 0.0, 0.0, 0.0, 0.0, 0.0, 0.0, 1.677615237811955E9, 0.0, 2023-02-28 12:13:57.811
102.0, 25554.168290396727, -4350.878816947797, 15215.30183736108, -3102.109205974246, 14742.830663064799, 7440.493397771525, -187500.02235174447, -187500.02235174447, -0.186, -0.752, -0.644, 192.0, 0.0, 0.0, 0.0, 0.0, 0.0, 0.0, 0.0, 0.0, 0.0, 1.6776152378160307E9, 0.0, 2023-02-28 12:13:57.816
103.0, 25532.643560486267, -4354.030412915995, 14975.065287955438, -3107.943011277081, 14614.017559768863, 7428.199938321107, -187500.02235174447, -187500.02235174447, -0.186, -0.752, -0.644, 192.0, 0.0, 0.0, 0.0, 0.0, 0.0, 0.0, 0.0, 0.0, 0.0, 1.677615237819991E9, 0.0, 2023-02-28 12:13:57.819
104.0, 25670.285602842047, -4355.371517583313, 15722.753491729914, -3118.7612555934497, 14995.91946553224, 7771.053346521062, -187500.02235174447, -187500.02235174447, -0.186, -0.752, -0.644, 192.0, 0.0, 0.0, 0.0, 0.0, 0.0, 0.0, 0.0, 0.0, 0.0, 1.6776152378238945E9, 0.0, 2023-02-28 12:13:57.823
105.0, 25712.12806846238, -4354.499799549556, 16067.350335997384, -3116.056694514358, 15177.683851442796, 7831.134835616927, -187500.02235174447, -187500.02235174447, -0.186, -0.752, -0.644, 192.0, 0.0, 0.0, 0.0, 0.0, 0.0, 0.0, 0.0, 0.0, 0.0, 1.6776152378269076E9, 0.0, 2023-02-28 12:13:57.826
106.0, 25580.453941876167, -4352.465790804123, 15352.429789594387, -3105.2608019424442, 14813.484527288025, 7496.6633315877125, -187500.02235174447, -187500.02235174447, -0.186, -0.752, -0.644, 192.0, 0.0, 0.0, 0.0, 0.0, 0.0, 0.0, 0.0, 0.0, 0.0, 1.6776152378308754E9, 0.0, 2023-02-28 12:13:57.830
107.0, 25532.308284319435, -4350.789409969975, 14923.008075119029, -3105.1937467090784, 14593.31984440325, 7395.767557116456, -187500.02235174447, -187500.02235174447, -0.186, -0.752, -0.644, 192.0, 0.0, 0.0, 0.0, 0.0, 0.0, 0.0, 0.0, 0.0, 0.0, 1.6776152378359041E9, 0.0, 2023-02-28 12:13:57.835
108.0, 25651.376027032857, -4352.152866381749, 15569.308766044232, -3115.5202526474304, 14921.868136151808, 7709.697807991244, -187500.02235174447, -187500.02235174447, -0.186, -0.752, -0.644, 192.0, 0.0, 0.0, 0.0, 0.0, 0.0, 0.0, 0.0, 0.0, 0.0, 1.6776152378399136E9, 0.0, 2023-02-28 12:13:57.839
109.0, 25711.770440551096, -4354.276282105003, 16096.295845067007, -3115.2520317139665, 15191.497229516177, 7857.375783607457, -187500.02235174447, -187500.02235174447, -0.182, -0.752, -0.642, 192.0, 250.0, 80.0, 232.0, 128.0, 235.0, 240.0, 0.0, 0.0, 0.0, 1.677615237843963E9, 0.0, 2023-02-28 12:13:57.843
110.0, 25597.463619406655, -4352.264625104025, 15501.761794300295, -3103.495014130475, 14889.480458436068, 7551.961547370142, -187500.02235174447, -187500.02235174447, -0.182, -0.752, -0.642, 192.0, 0.0, 0.0, 0.0, 0.0, 0.0, 0.0, 0.0, 0.0, 0.0, 1.6776152378480732E9, 0.0, 2023-02-28 12:13:57.848
111.0, 25518.830182412887, -4353.382212326791, 14910.826374390886, -3103.2044414525562, 14591.46464961346, 7361.032946232909, -187500.02235174447, -187500.02235174447, -0.182, -0.752, -0.642, 192.0, 0.0, 0.0, 0.0, 0.0, 0.0, 0.0, 0.0, 0.0, 0.0, 1.6776152378509383E9, 0.0, 2023-02-28 12:13:57.850
112.0, 25620.17299177325, -4356.667918761721, 15414.902915346971, -3115.2743834584217, 14845.291059647925, 7636.31703094447, -187500.02235174447, -187500.02235174447, -0.182, -0.752, -0.642, 192.0, 0.0, 0.0, 0.0, 0.0, 0.0, 0.0, 0.0, 0.0, 0.0, 1.6776152378548963E9, 0.0, 2023-02-28 12:13:57.854
113.0, 25712.172771951293, -4358.500761807056, 16087.310443795974, -3119.1635869936454, 15190.871380671428, 7876.12889720546, -187500.02235174447, -187500.02235174447, -0.182, -0.752, -0.642, 192.0, 0.0, 0.0, 0.0, 0.0, 0.0, 0.0, 0.0, 0.0, 0.0, 1.6776152378589232E9, 0.0, 2023-02-28 12:13:57.858
114.0, 25625.448003464702, -4356.556160039444, 15653.686601363017, -3109.9546682780588, 14970.39377336428, 7618.010952235574, -187500.02235174447, -187500.02235174447, -0.182, -0.752, -0.642, 192.0, 0.0, 0.0, 0.0, 0.0, 0.0, 0.0, 0.0, 0.0, 0.0, 1.6776152378639765E9, 0.0, 2023-02-28 12:13:57.863
115.0, 25525.71451970512, -4357.114953650827, 14943.348162573358, -3107.227755454511, 14599.779498550834, 7363.759859056457, -187500.02235174447, -187500.02235174447, -0.182, -0.752, -0.642, 192.0, 0.0, 0.0, 0.0, 0.0, 0.0, 0.0, 0.0, 0.0, 0.0, 1.677615237867944E9, 0.0, 2023-02-28 12:13:57.867
116.0, 25595.027279261027, -4361.898226964263, 15272.142323510925, -3117.1519299926676, 14765.5847389203, 7585.600922775379, -187500.02235174447, -187500.02235174447, -0.182, -0.752, -0.642, 192.0, 0.0, 0.0, 0.0, 0.0, 0.0, 0.0, 0.0, 0.0, 0.0, 1.677615237871913E9, 0.0, 2023-02-28 12:13:57.871
117.0, 25708.99882423864, -4365.899189221763, 16041.60112638487, -3124.4162469406424, 15162.328203002002, 7873.0443564706275, -187500.02235174447, -187500.02235174447, -0.182, -0.752, -0.642, 192.0, 0.0, 0.0, 0.0, 0.0, 0.0, 0.0, 0.0, 0.0, 0.0, 1.6776152378759887E9, 0.0, 2023-02-28 12:13:57.875
118.0, 25643.664675195778, -4364.066346176427, 15799.084699044788, -3115.363790436243, 15044.132178322337, 7686.295531546537, -187500.02235174447, -187500.02235174447, -0.182, -0.752, -0.642, 192.0, 0.0, 0.0, 0.0, 0.0, 0.0, 0.0, 0.0, 0.0, 0.0, 1.6776152378789368E9, 0.0, 2023-02-28 12:13:57.878
119.0, 25523.00995862603, -4362.2782066200025, 15009.77754709453, -3108.658267099651, 14637.956278080497, 7381.08246100932, -187500.02235174447, -187500.02235174447, -0.17400000000000002, -0.754, -0.634, 192.0, 250.0, 144.0, 232.0, 112.0, 236.0, 48.0, 0.0, 0.0, 0.0, 1.6776152378830802E9, 0.0, 2023-02-28 12:13:57.883
120.0, 25566.215880658136, -4367.195590400171, 15144.782083604585, -3117.598964881774, 14703.29042712336, 7521.205546999639, -187500.02235174447, -187500.02235174447, -0.17400000000000002, -0.754, -0.634, 192.0, 0.0, 0.0, 0.0, 0.0, 0.0, 0.0, 0.0, 0.0, 0.0, 1.6776152378870237E9, 0.0, 2023-02-28 12:13:57.887
121.0, 25703.120315446893, -4367.083831677894, 15954.898709642734, -3124.840930085293, 15120.32927517048, 7839.472036298756, -187500.02235174447, -187500.02235174447, -0.17400000000000002, -0.754, -0.634, 192.0, 0.0, 0.0, 0.0, 0.0, 0.0, 0.0, 0.0, 0.0, 0.0, 1.677615237891008E9, 0.0, 2023-02-28 12:13:57.891
122.0, 25675.292393600037, -4365.072174676916, 15920.320560970375, -3117.7777788374165, 15110.650969821332, 7729.523805323101, -187500.02235174447, -187500.02235174447, -0.17400000000000002, -0.754, -0.634, 192.0, 0.0, 0.0, 0.0, 0.0, 0.0, 0.0, 0.0, 0.0, 0.0, 1.677615237895968E9, 0.0, 2023-02-28 12:13:57.895
123.0, 25537.71740647762, -4365.3850990992905, 15110.740376799153, -3109.150005477668, 14695.959054942019, 7407.5022229554925, -187500.02235174447, -187500.02235174447, -0.17400000000000002, -0.754, -0.634, 192.0, 0.0, 0.0, 0.0, 0.0, 0.0, 0.0, 0.0, 0.0, 0.0, 1.6776152378999977E9, 0.0, 2023-02-28 12:13:57.899
124.0, 25549.25090661656, -4367.4414595891785, 15040.667657931765, -3115.944935792081, 14655.636507944646, 7470.154162663718, -187500.02235174447, -187500.02235174447, -0.17400000000000002, -0.754, -0.634, 192.0, 0.0, 0.0, 0.0, 0.0, 0.0, 0.0, 0.0, 0.0, 0.0, 1.677615237904009E9, 0.0, 2023-02-28 12:13:57.904
125.0, 25682.5120070591, -4369.184895656693, 15840.36837105374, -3125.109151018757, 15063.801713443008, 7810.325361529036, -187500.02235174447, -187500.02235174447, -0.17400000000000002, -0.754, -0.634, 192.0, 0.0, 0.0, 0.0, 0.0, 0.0, 0.0, 0.0, 0.0, 0.0, 1.6776152379069998E9, 0.0, 2023-02-28 12:13:57.906
126.0, 25687.161169905805, -4367.396756100268, 16018.64588482927, -3119.5212149049303, 15158.327240744502, 7792.108689797961, -187500.02235174447, -187500.02235174447, -0.17400000000000002, -0.754, -0.634, 192.0, 0.0, 0.0, 0.0, 0.0, 0.0, 0.0, 0.0, 0.0, 0.0, 1.6776152379110432E9, 0.0, 2023-02-28 12:13:57.911
127.0, 25552.603668284853, -4363.552256053956, 15239.01703822816, -3108.278287443911, 14762.097866785272, 7444.360249562294, -187500.02235174447, -187500.02235174447, -0.17400000000000002, -0.754, -0.634, 192.0, 0.0, 0.0, 0.0, 0.0, 0.0, 0.0, 0.0, 0.0, 0.0, 1.6776152379150095E9, 0.0, 2023-02-28 12:13:57.915
128.0, 25535.81750819892, -4362.412317086735, 14964.850540739364, -3110.8934415451818, 14617.057397014785, 7412.08433056883, -187500.02235174447, -187500.02235174447, -0.17400000000000002, -0.754, -0.634, 192.0, 0.0, 0.0, 0.0, 0.0, 0.0, 0.0, 0.0, 0.0, 0.0, 1.6776152379201012E9, 0.0, 2023-02-28 12:13:57.920
129.0, 25671.98433542065, -4362.546427553467, 15699.708843196493, -3121.555223650363, 14991.136192218804, 7753.015488745629, -187500.02235174447, -187500.02235174447, -0.178, -0.748, -0.638, 192.0, 250.0, 112.0, 232.0, 160.0, 236.0, 16.0, 0.0, 0.0, 0.0, 1.6776152379239793E9, 0.0, 2023-02-28 12:13:57.923
130.0, 25714.18442895227, -4360.177142641204, 16080.180237314731, -3119.431807927109, 15186.445735269277, 7832.095960628505, -187500.02235174447, -187500.02235174447, -0.178, -0.748, -0.638, 192.0, 0.0, 0.0, 0.0, 0.0, 0.0, 0.0, 0.0, 0.0, 0.0, 1.6776152379280536E9, 0.0, 2023-02-28 12:13:57.928
131.0, 25584.63371808931, -4356.399697828258, 15382.269368442223, -3108.211232210545, 14829.26485887347, 7500.329017678383, -187500.02235174447, -187500.02235174447, -0.178, -0.748, -0.638, 192.0, 0.0, 0.0, 0.0, 0.0, 0.0, 0.0, 0.0, 0.0, 0.0, 1.6776152379320047E9, 0.0, 2023-02-28 12:13:57.932
132.0, 25527.659121472734, -4355.595035027866, 14923.164537330216, -3108.7700258219274, 14589.788268779312, 7381.015405775954, -187500.02235174447, -187500.02235174447, -0.178, -0.748, -0.638, 192.0, 0.0, 0.0, 0.0, 0.0, 0.0, 0.0, 0.0, 0.0, 0.0, 1.6776152379350717E9, 0.0, 2023-02-28 12:13:57.935
133.0, 25646.190422319225, -4358.724279251609, 15547.202890777933, -3118.7612555934497, 14904.09849930984, 7706.255639345127, -187500.02235174447, -187500.02235174447, -0.178, -0.748, -0.638, 192.0, 0.0, 0.0, 0.0, 0.0, 0.0, 0.0, 0.0, 0.0, 0.0, 1.677615237939068E9, 0.0, 2023-02-28 12:13:57.939
134.0, 25723.66156860132, -4356.556160039444, 16102.152002114297, -3119.565918393841, 15196.369909807434, 7863.164885421382, -187500.02235174447, -187500.02235174447, -0.178, -0.748, -0.638, 192.0, 0.0, 0.0, 0.0, 0.0, 0.0, 0.0, 0.0, 0.0, 0.0, 1.6776152379430864E9, 0.0, 2023-02-28 12:13:57.943
135.0, 25615.724994626642, -4353.918654193718, 15534.194175504945, -3108.9935432664806, 14910.602856946332, 7558.5329602400025, -187500.02235174447, -187500.02235174447, -0.178, -0.748, -0.638, 192.0, 0.0, 0.0, 0.0, 0.0, 0.0, 0.0, 0.0, 0.0, 0.0, 1.6776152379470396E9, 0.0, 2023-02-28 12:13:57.947
136.0, 25527.05562437244, -4355.416221072223, 14920.482327995578, -3106.8030723098605, 14592.090498458207, 7364.966853257043, -187500.02235174447, -187500.02235174447, -0.178, -0.748, -0.638, 192.0, 0.0, 0.0, 0.0, 0.0, 0.0, 0.0, 0.0, 0.0, 0.0, 1.6776152379521213E9, 0.0, 2023-02-28 12:13:57.952
137.0, 25616.373195215845, -4361.898226964263, 15395.099269759568, -3117.5095579039526, 14836.104492676795, 7636.406437922292, -187500.02235174447, -187500.02235174447, -0.178, -0.748, -0.638, 192.0, 0.0, 0.0, 0.0, 0.0, 0.0, 0.0, 0.0, 0.0, 0.0, 1.6776152379561408E9, 0.0, 2023-02-28 12:13:57.956
138.0, 25719.07946098798, -4362.591131042377, 16087.668071707258, -3121.4881684169973, 15189.977310893217, 7881.806240297108, -187500.02235174447, -187500.02235174447, -0.178, -0.748, -0.638, 192.0, 0.0, 0.0, 0.0, 0.0, 0.0, 0.0, 0.0, 0.0, 0.0, 1.6776152379601269E9, 0.0, 2023-02-28 12:13:57.960
139.0, 25640.133099571838, -4357.67374726221, 15684.844933133714, -3110.6028688672627, 14988.096354972882, 7632.807807064987, -187500.02235174447, -187500.02235174447, -0.178, -0.756, -0.644, 192.0, 250.0, 112.0, 232.0, 96.0, 235.0, 224.0, 0.0, 0.0, 0.0, 1.6776152379630628E9, 0.0, 2023-02-28 12:13:57.963
140.0, 25532.084766874883, -4355.080944905394, 14955.753380746053, -3105.5066711314525, 14610.418928911558, 7367.559655613859, -187500.02235174447, -187500.02235174447, -0.178, -0.756, -0.644, 192.0, 0.0, 0.0, 0.0, 0.0, 0.0, 0.0, 0.0, 0.0, 0.0, 1.6776152379680643E9, 0.0, 2023-02-28 12:13:57.968
141.0, 25597.39656417329, -4357.047898417461, 15253.724486079753, -3114.9167555471367, 14759.594471406279, 7571.765192957544, -187500.02235174447, -187500.02235174447, -0.178, -0.756, -0.644, 192.0, 0.0, 0.0, 0.0, 0.0, 0.0, 0.0, 0.0, 0.0, 0.0, 1.6776152379720724E9, 0.0, 2023-02-28 12:13:57.972
142.0, 25712.820972540496, -4360.825343230408, 16032.928649536212, -3122.0022585394695, 15158.640165166875, 7868.79752502412, -187500.02235174447, -187500.02235174447, -0.178, -0.756, -0.644, 192.0, 0.0, 0.0, 0.0, 0.0, 0.0, 0.0, 0.0, 0.0, 0.0, 1.677615237975034E9, 0.0, 2023-02-28 12:13:57.975
143.0, 25660.13791085934, -4356.466753061623, 15823.649266201171, -3112.167490979134, 15055.419809272267, 7694.81154618401, -187500.02235174447, -187500.02235174447, -0.178, -0.756, -0.644, 192.0, 0.0, 0.0, 0.0, 0.0, 0.0, 0.0, 0.0, 0.0, 0.0, 1.6776152379801085E9, 0.0, 2023-02-28 12:13:57.980
144.0, 25540.086691389883, -4353.516322793523, 15027.323666491946, -3102.980924008003, 14652.239042787438, 7385.977493045032, -187500.02235174447, -187500.02235174447, -0.178, -0.756, -0.644, 192.0, 0.0, 0.0, 0.0, 0.0, 0.0, 0.0, 0.0, 0.0, 0.0, 1.6776152379841192E9, 0.0, 2023-02-28 12:13:57.984
145.0, 25581.81739828794, -4359.171314140715, 15125.939563028762, -3112.301601445866, 14697.52367705389, 7508.129776493285, -187500.02235174447, -187500.02235174447, -0.178, -0.756, -0.644, 192.0, 0.0, 0.0, 0.0, 0.0, 0.0, 0.0, 0.0, 0.0, 0.0, 1.6776152379880877E9, 0.0, 2023-02-28 12:13:57.988
146.0, 25715.3690714084, -4363.194628142671, 15938.872508868279, -3122.650459128673, 15111.969722744194, 7837.974469420251, -187500.02235174447, -187500.02235174447, -0.178, -0.756, -0.644, 192.0, 0.0, 0.0, 0.0, 0.0, 0.0, 0.0, 0.0, 0.0, 0.0, 1.677615237991048E9, 0.0, 2023-02-28 12:13:57.991
147.0, 25684.881291971364, -4361.987633942083, 15939.833633879858, -3115.5649561363407, 15119.636371092365, 7763.29729119507, -187500.02235174447, -187500.02235174447, -0.178, -0.756, -0.644, 192.0, 0.0, 0.0, 0.0, 0.0, 0.0, 0.0, 0.0, 0.0, 0.0, 1.6776152379950802E9, 0.0, 2023-02-28 12:13:57.995
148.0, 25550.256735117047, -4357.941968195673, 15130.476967153189, -3104.746711819972, 14711.225296404995, 7423.908403385688, -187500.02235174447, -187500.02235174447, -0.178, -0.756, -0.644, 192.0, 0.0, 0.0, 0.0, 0.0, 0.0, 0.0, 0.0, 0.0, 0.0, 1.677615237999184E9, 0.0, 2023-02-28 12:13:57.999
149.0, 25559.175081154717, -4357.897264706763, 15022.965076323162, -3110.0664270003354, 14652.820188143276, 7463.04630792693, -187500.02235174447, -187500.02235174447, -0.18, -0.752, -0.646, 192.0, 250.0, 96.0, 232.0, 128.0, 235.0, 208.0, 0.0, 0.0, 0.0, 1.6776152380030973E9, 0.0, 2023-02-28 12:13:58.003
150.0, 25700.683975301265, -4358.545465295967, 15813.903905618658, -3119.7447323494835, 15056.537396495032, 7806.391454504902, -187500.02235174447, -187500.02235174447, -0.18, -0.752, -0.646, 192.0, 0.0, 0.0, 0.0, 0.0, 0.0, 0.0, 0.0, 0.0, 0.0, 1.6776152380081863E9, 0.0, 2023-02-28 12:13:58.008
151.0, 25717.157210964826, -4354.343337338369, 16025.798443054968, -3114.3132584468435, 15175.00164210816, 7799.775338146132, -187500.02235174447, -187500.02235174447, -0.18, -0.752, -0.646, 192.0, 0.0, 0.0, 0.0, 0.0, 0.0, 0.0, 0.0, 0.0, 0.0, 1.677615238012126E9, 0.0, 2023-02-28 12:13:58.012
152.0, 25584.611366344856, -4349.649471002755, 15256.384343669934, -3103.2938484303772, 14781.007442594462, 7453.837389211344, -187500.02235174447, -187500.02235174447, -0.18, -0.752, -0.646, 192.0, 0.0, 0.0, 0.0, 0.0, 0.0, 0.0, 0.0, 0.0, 0.0, 1.67761523801518E9, 0.0, 2023-02-28 12:13:58.015
153.0, 25553.654200274254, -4350.834113458885, 14949.763113232031, -3105.596078109274, 14619.024350526852, 7413.492490469514, -187500.02235174447, -187500.02235174447, -0.18, -0.752, -0.646, 192.0, 0.0, 0.0, 0.0, 0.0, 0.0, 0.0, 0.0, 0.0, 0.0, 1.677615238019156E9, 0.0, 2023-02-28 12:13:58.019
154.0, 25680.746219247132, -4353.069287904416, 15669.489284692918, -3115.497900902975, 14985.257683427059, 7754.580110857501, -187500.02235174447, -187500.02235174447, -0.18, -0.752, -0.646, 192.0, 0.0, 0.0, 0.0, 0.0, 0.0, 0.0, 0.0, 0.0, 0.0, 1.6776152380231788E9, 0.0, 2023-02-28 12:13:58.023
155.0, 25726.09790874695, -4354.253930360547, 16080.716679181658, -3114.402665424665, 15200.549686020577, 7841.50604504419, -187500.02235174447, -187500.02235174447, -0.18, -0.752, -0.646, 192.0, 0.0, 0.0, 0.0, 0.0, 0.0, 0.0, 0.0, 0.0, 0.0, 1.677615238027172E9, 0.0, 2023-02-28 12:13:58.027
156.0, 25601.10695375287, -4353.136343137782, 15401.76008960725, -3102.5338891188967, 14852.913004507185, 7516.556384152936, -187500.02235174447, -187500.02235174447, -0.18, -0.752, -0.646, 192.0, 0.0, 0.0, 0.0, 0.0, 0.0, 0.0, 0.0, 0.0, 0.0, 1.677615238031118E9, 0.0, 2023-02-28 12:13:58.031
157.0, 25549.89910720576, -4351.750534981553, 14918.984761117074, -3103.3832554081987, 14600.181829951029, 7379.540190641903, -187500.02235174447, -187500.02235174447, -0.18, -0.752, -0.646, 192.0, 0.0, 0.0, 0.0, 0.0, 0.0, 0.0, 0.0, 0.0, 0.0, 1.6776152380350943E9, 0.0, 2023-02-28 12:13:58.035
158.0, 25669.592698763932, -4352.979880926595, 15523.107710255112, -3114.2462032134777, 14905.193734788149, 7688.1954298252385, -187500.02235174447, -187500.02235174447, -0.18, -0.752, -0.646, 192.0, 0.0, 0.0, 0.0, 0.0, 0.0, 0.0, 0.0, 0.0, 0.0, 1.6776152380401773E9, 0.0, 2023-02-28 12:13:58.040
159.0, 25726.18731572477, -4357.114953650827, 16100.945007913711, -3115.9002323031705, 15202.695453488286, 7869.89276050243, -187500.02235174447, -187500.02235174447, -0.18, -0.748, -0.638, 192.0, 250.0, 96.0, 232.0, 160.0, 236.0, 16.0, 0.0, 0.0, 0.0, 1.6776152380441964E9, 0.0, 2023-02-28 12:13:58.044
160.0, 25599.095296751893, -4358.456058318146, 15556.232995537877, -3105.8642990427375, 14921.823432662897, 7580.1918006171945, -187500.02235174447, -187500.02235174447, -0.18, -0.748, -0.638, 192.0, 0.0, 0.0, 0.0, 0.0, 0.0, 0.0, 0.0, 0.0, 0.0, 1.677615238047201E9, 0.0, 2023-02-28 12:13:58.047
161.0, 25508.90600787473, -4356.913787950729, 14923.253944308037, -3102.064502485335, 14599.60068459519, 7371.135934726708, -187500.02235174447, -187500.02235174447, -0.18, -0.748, -0.638, 192.0, 0.0, 0.0, 0.0, 0.0, 0.0, 0.0, 0.0, 0.0, 0.0, 1.6776152380512257E9, 0.0, 2023-02-28 12:13:58.051
162.0, 25596.793067073, -4362.859351975841, 15370.601757836552, -3113.8662235577376, 14830.293039118415, 7623.241260438116, -187500.02235174447, -187500.02235174447, -0.18, -0.748, -0.638, 192.0, 0.0, 0.0, 0.0, 0.0, 0.0, 0.0, 0.0, 0.0, 0.0, 1.6776152380551739E9, 0.0, 2023-02-28 12:13:58.055
163.0, 25684.590719293443, -4369.296654378969, 16078.012118102566, -3120.0576567718576, 15192.14543010538, 7870.406850624901, -187500.02235174447, -187500.02235174447, -0.18, -0.748, -0.638, 192.0, 0.0, 0.0, 0.0, 0.0, 0.0, 0.0, 0.0, 0.0, 0.0, 1.6776152380592413E9, 0.0, 2023-02-28 12:13:58.059
164.0, 25583.62788958882, -4373.811706758941, 15703.419232776074, -3110.826386311816, 15001.239180712604, 7637.0099350225855, -187500.02235174447, -187500.02235174447, -0.18, -0.748, -0.638, 192.0, 0.0, 0.0, 0.0, 0.0, 0.0, 0.0, 0.0, 0.0, 0.0, 1.6776152380632033E9, 0.0, 2023-02-28 12:13:58.063
165.0, 25452.914888014187, -4379.131421939304, 14962.548311060467, -3106.646610098673, 14617.7503010929, 7371.135934726708, -187500.02235174447, -187500.02235174447, -0.18, -0.748, -0.638, 192.0, 0.0, 0.0, 0.0, 0.0, 0.0, 0.0, 0.0, 0.0, 0.0, 1.6776152380682254E9, 0.0, 2023-02-28 12:13:58.068
166.0, 25504.592121194855, -4386.373387142824, 15234.256116659179, -3117.5095579039526, 14753.984183547997, 7557.057745105952, -187500.02235174447, -187500.02235174447, -0.18, -0.748, -0.638, 192.0, 0.0, 0.0, 0.0, 0.0, 0.0, 0.0, 0.0, 0.0, 0.0, 1.6776152380712276E9, 0.0, 2023-02-28 12:13:58.071
167.0, 25624.285712753026, -4387.803898787964, 16019.472899374117, -3124.9303370631146, 15160.785932634584, 7853.643042283421, -187500.02235174447, -187500.02235174447, -0.18, -0.748, -0.638, 192.0, 0.0, 0.0, 0.0, 0.0, 0.0, 0.0, 0.0, 0.0, 0.0, 1.6776152380752015E9, 0.0, 2023-02-28 12:13:58.075
168.0, 25564.53949982399, -4389.860259277852, 15842.268269332442, -3117.5095579039526, 15068.272062334068, 7708.088482390462, -187500.02235174447, -187500.02235174447, -0.18, -0.748, -0.638, 192.0, 0.0, 0.0, 0.0, 0.0, 0.0, 0.0, 0.0, 0.0, 0.0, 1.6776152380792332E9, 0.0, 2023-02-28 12:13:58.079
169.0, 25427.053919679394, -4391.134308711804, 15044.847434144907, -3110.3793514227095, 14656.95526086751, 7399.343836229305, -187500.02235174447, -187500.02235174447, -0.176, -0.75, -0.642, 192.0, 250.0, 128.0, 232.0, 144.0, 235.0, 240.0, 0.0, 0.0, 0.0, 1.6776152380832183E9, 0.0, 2023-02-28 12:13:58.083
170.0, 25455.97707700456, -4393.01185524605, 15115.367187901402, -3118.560089893352, 14684.939644925553, 7515.014113785519, -187500.02235174447, -187500.02235174447, -0.176, -0.75, -0.642, 192.0, 0.0, 0.0, 0.0, 0.0, 0.0, 0.0, 0.0, 0.0, 0.0, 1.6776152380892472E9, 0.0, 2023-02-28 12:13:58.089
171.0, 25580.565700598443, -4395.738768069597, 15926.333180228852, -3127.0537527863685, 15099.89978073833, 7846.579891035544, -187500.02235174447, -187500.02235174447, -0.176, -0.75, -0.642, 192.0, 0.0, 0.0, 0.0, 0.0, 0.0, 0.0, 0.0, 0.0, 0.0, 1.677615238092203E9, 0.0, 2023-02-28 12:13:58.092
172.0, 25555.15176715276, -4395.224677947125, 15960.017259123, -3120.7282091055167, 15125.112548483916, 7762.336166183492, -187500.02235174447, -187500.02235174447, -0.176, -0.75, -0.642, 192.0, 0.0, 0.0, 0.0, 0.0, 0.0, 0.0, 0.0, 0.0, 0.0, 1.6776152380961952E9, 0.0, 2023-02-28 12:13:58.096
173.0, 25424.79639348941, -4390.530811611511, 15157.656688410842, -3110.1558339781564, 14715.382720873682, 7421.13678707323, -187500.02235174447, -187500.02235174447, -0.176, -0.75, -0.642, 192.0, 0.0, 0.0, 0.0, 0.0, 0.0, 0.0, 0.0, 0.0, 0.0, 1.6776152380992165E9, 0.0, 2023-02-28 12:13:58.099
174.0, 25430.07140518086, -4390.44140463369, 15020.372273966346, -3115.0285142694133, 14635.743455379423, 7453.502113044515, -187500.02235174447, -187500.02235174447, -0.176, -0.75, -0.642, 192.0, 0.0, 0.0, 0.0, 0.0, 0.0, 0.0, 0.0, 0.0, 0.0, 1.6776152381032052E9, 0.0, 2023-02-28 12:13:58.103
175.0, 25552.424854329212, -4394.77764305802, 15799.576437422806, -3125.4220754411313, 15032.218698527658, 7803.999817848185, -187500.02235174447, -187500.02235174447, -0.176, -0.75, -0.642, 192.0, 0.0, 0.0, 0.0, 0.0, 0.0, 0.0, 0.0, 0.0, 0.0, 1.6776152381072628E9, 0.0, 2023-02-28 12:13:58.107
176.0, 25570.574470826923, -4394.352959913368, 16044.328039208418, -3122.0469620283798, 15161.94822334626, 7817.50027149919, -187500.02235174447, -187500.02235174447, -0.176, -0.75, -0.642, 192.0, 0.0, 0.0, 0.0, 0.0, 0.0, 0.0, 0.0, 0.0, 0.0, 1.6776152381112778E9, 0.0, 2023-02-28 12:13:58.111
177.0, 25442.968361731575, -4389.994369744583, 15289.911960352894, -3110.3793514227095, 14775.285396013904, 7473.328110376372, -187500.02235174447, -187500.02235174447, -0.176, -0.75, -0.642, 192.0, 0.0, 0.0, 0.0, 0.0, 0.0, 0.0, 0.0, 0.0, 0.0, 1.6776152381152413E9, 0.0, 2023-02-28 12:13:58.115
178.0, 25403.495181023503, -4390.419052889234, 14955.887491212785, -3113.016857268436, 14598.058414227775, 7419.818034150367, -187500.02235174447, -187500.02235174447, -0.176, -0.75, -0.642, 192.0, 0.0, 0.0, 0.0, 0.0, 0.0, 0.0, 0.0, 0.0, 0.0, 1.6776152381192183E9, 0.0, 2023-02-28 12:13:58.119
179.0, 25532.218877341616, -4392.274247679025, 15657.642860131606, -3123.52217716243, 14961.386020348791, 7753.842503290475, -187500.02235174447, -187500.02235174447, -0.184, -0.752, -0.642, 192.0, 250.0, 64.0, 232.0, 128.0, 235.0, 240.0, 0.0, 0.0, 0.0, 1.677615238124266E9, 0.0, 2023-02-28 12:13:58.124
180.0, 25584.43255238921, -4391.983675001106, 16095.535885755526, -3122.538700406397, 15189.217351581736, 7855.69940277331, -187500.02235174447, -187500.02235174447, -0.184, -0.752, -0.642, 192.0, 0.0, 0.0, 0.0, 0.0, 0.0, 0.0, 0.0, 0.0, 0.0, 1.6776152381272967E9, 0.0, 2023-02-28 12:13:58.127
181.0, 25458.41341715019, -4393.838869790897, 15437.612287713562, -3113.240374712989, 14851.996582984519, 7535.220090773117, -187500.02235174447, -187500.02235174447, -0.184, -0.752, -0.642, 192.0, 0.0, 0.0, 0.0, 0.0, 0.0, 0.0, 0.0, 0.0, 0.0, 1.6776152381313007E9, 0.0, 2023-02-28 12:13:58.131
182.0, 25397.5943204873, -4395.358788413857, 14928.685418210676, -3114.0226857689245, 14579.662928541056, 7394.292341982406, -187500.02235174447, -187500.02235174447, -0.184, -0.752, -0.642, 192.0, 0.0, 0.0, 0.0, 0.0, 0.0, 0.0, 0.0, 0.0, 0.0, 1.6776152381352708E9, 0.0, 2023-02-28 12:13:58.135
183.0, 25509.688318930665, -4398.689198337698, 15503.080547223157, -3124.304488218366, 14873.65542336171, 7692.598723482934, -187500.02235174447, -187500.02235174447, -0.184, -0.752, -0.642, 192.0, 0.0, 0.0, 0.0, 0.0, 0.0, 0.0, 0.0, 0.0, 0.0, 1.6776152381392577E9, 0.0, 2023-02-28 12:13:58.139
184.0, 25588.54527336899, -4400.186765216204, 16105.124784126852, -3127.1878632531007, 15187.518619003133, 7874.720737304776, -187500.02235174447, -187500.02235174447, -0.184, -0.752, -0.642, 192.0, 0.0, 0.0, 0.0, 0.0, 0.0, 0.0, 0.0, 0.0, 0.0, 1.6776152381432886E9, 0.0, 2023-02-28 12:13:58.143
185.0, 25478.61939413779, -4397.057520992461, 15585.647891241062, -3116.146101492179, 14922.493984996556, 7595.7486147580885, -187500.02235174447, -187500.02235174447, -0.184, -0.752, -0.642, 192.0, 0.0, 0.0, 0.0, 0.0, 0.0, 0.0, 0.0, 0.0, 0.0, 1.6776152381472225E9, 0.0, 2023-02-28 12:13:58.147
186.0, 25387.267814548948, -4395.224677947125, 14931.85936592333, -3112.212194468045, 14585.116754188151, 7384.2564087219735, -187500.02235174447, -187500.02235174447, -0.184, -0.752, -0.642, 192.0, 0.0, 0.0, 0.0, 0.0, 0.0, 0.0, 0.0, 0.0, 0.0, 1.6776152381522353E9, 0.0, 2023-02-28 12:13:58.152
187.0, 25474.685487113657, -4401.080834994416, 15352.60860355003, -3123.6786393736174, 14797.257160813471, 7627.1528157177945, -187500.02235174447, -187500.02235174447, -0.184, -0.752, -0.642, 192.0, 0.0, 0.0, 0.0, 0.0, 0.0, 0.0, 0.0, 0.0, 0.0, 1.6776152381552653E9, 0.0, 2023-02-28 12:13:58.155
188.0, 25573.614308072843, -4406.735826341609, 16076.022812846044, -3130.3171074768434, 15166.060944326038, 7886.209533954804, -187500.02235174447, -187500.02235174447, -0.184, -0.752, -0.642, 192.0, 0.0, 0.0, 0.0, 0.0, 0.0, 0.0, 0.0, 0.0, 0.0, 1.6776152381593616E9, 0.0, 2023-02-28 12:13:58.159
189.0, 25493.840932111852, -4402.891326295296, 15731.895355212137, -3119.1635869936454, 14993.438421897701, 7660.881598100853, -187500.02235174447, -187500.02235174447, -0.188, -0.758, -0.642, 192.0, 250.0, 32.0, 232.0, 80.0, 235.0, 240.0, 0.0, 0.0, 0.0, 1.677615238163349E9, 0.0, 2023-02-28 12:13:58.163
190.0, 25384.78677091441, -4396.588134358899, 14980.228540924614, -3111.2510694564667, 14604.071033486252, 7386.98332154552, -187500.02235174447, -187500.02235174447, -0.188, -0.758, -0.642, 192.0, 0.0, 0.0, 0.0, 0.0, 0.0, 0.0, 0.0, 0.0, 0.0, 1.6776152381673236E9, 0.0, 2023-02-28 12:13:58.167
191.0, 25446.32112339987, -4398.443329148689, 15212.91020070436, -3120.4376364275977, 14716.165031929617, 7562.958605642153, -187500.02235174447, -187500.02235174447, -0.188, -0.758, -0.642, 192.0, 0.0, 0.0, 0.0, 0.0, 0.0, 0.0, 0.0, 0.0, 0.0, 1.677615238171276E9, 0.0, 2023-02-28 12:13:58.171
192.0, 25575.670668562732, -4398.622143104332, 16005.279541644997, -3127.4113806976534, 15127.481833396178, 7878.922865262373, -187500.02235174447, -187500.02235174447, -0.188, -0.758, -0.642, 192.0, 0.0, 0.0, 0.0, 0.0, 0.0, 0.0, 0.0, 0.0, 0.0, 1.677615238175342E9, 0.0, 2023-02-28 12:13:58.175
193.0, 25527.39090053927, -4398.242163448592, 15861.84839747529, -3119.051828271369, 15060.784227941542, 7731.334296623982, -187500.02235174447, -187500.02235174447, -0.188, -0.758, -0.642, 192.0, 0.0, 0.0, 0.0, 0.0, 0.0, 0.0, 0.0, 0.0, 0.0, 1.6776152381803408E9, 0.0, 2023-02-28 12:13:58.180
194.0, 25391.78286692892, -4401.01377976105, 15060.828931430451, -3112.1227874902233, 14643.164234538584, 7423.103740585297, -187500.02235174447, -187500.02235174447, -0.188, -0.758, -0.642, 192.0, 0.0, 0.0, 0.0, 0.0, 0.0, 0.0, 0.0, 0.0, 0.0, 1.6776152381833189E9, 0.0, 2023-02-28 12:13:58.183
195.0, 25427.36684410177, -4401.974904772628, 15096.748184770131, -3119.4094561826537, 14657.312888778793, 7527.307573235938, -187500.02235174447, -187500.02235174447, -0.188, -0.758, -0.642, 192.0, 0.0, 0.0, 0.0, 0.0, 0.0, 0.0, 0.0, 0.0, 0.0, 1.677615238187307E9, 0.0, 2023-02-28 12:13:58.187
196.0, 25559.10802592135, -4403.986561773606, 15904.160249729188, -3128.0595812868573, 15074.329385081457, 7860.996766209218, -187500.02235174447, -187500.02235174447, -0.188, -0.758, -0.642, 192.0, 0.0, 0.0, 0.0, 0.0, 0.0, 0.0, 0.0, 0.0, 0.0, 1.6776152381913328E9, 0.0, 2023-02-28 12:13:58.191
197.0, 25550.94963919516, -4399.3150471824465, 15971.72957321758, -3121.398761439176, 15112.908496011318, 7794.5003264546785, -187500.02235174447, -187500.02235174447, -0.188, -0.758, -0.642, 192.0, 0.0, 0.0, 0.0, 0.0, 0.0, 0.0, 0.0, 0.0, 0.0, 1.6776152381953454E9, 0.0, 2023-02-28 12:13:58.195
198.0, 25413.21818986156, -4398.018646004039, 15175.895711886373, -3112.4133601681424, 14703.938627712563, 7439.800493693411, -187500.02235174447, -187500.02235174447, -0.188, -0.758, -0.642, 192.0, 0.0, 0.0, 0.0, 0.0, 0.0, 0.0, 0.0, 0.0, 0.0, 1.6776152381993735E9, 0.0, 2023-02-28 12:13:58.199
199.0, 25400.477695522037, -4401.6619803502535, 15005.217791225648, -3116.7048951035613, 14614.911629547076, 7461.861665470799, -187500.02235174447, -187500.02235174447, -0.186, -0.754, -0.642, 192.0, 250.0, 48.0, 232.0, 112.0, 235.0, 240.0, 0.0, 0.0, 0.0, 1.6776152382033293E9, 0.0, 2023-02-28 12:13:58.203
200.0, 25535.370473309813, -4405.01474201855, 15776.174160978098, -3128.104284775768, 15009.241105227604, 7801.049387580084, -187500.02235174447, -187500.02235174447, -0.186, -0.754, -0.642, 192.0, 0.0, 0.0, 0.0, 0.0, 0.0, 0.0, 0.0, 0.0, 0.0, 1.677615238207343E9, 0.0, 2023-02-28 12:13:58.207
201.0, 25558.16925265423, -4403.561878628955, 16051.346486967384, -3123.6786393736174, 15157.23200526619, 7832.744161217709, -187500.02235174447, -187500.02235174447, -0.186, -0.754, -0.642, 192.0, 0.0, 0.0, 0.0, 0.0, 0.0, 0.0, 0.0, 0.0, 0.0, 1.677615238211413E9, 0.0, 2023-02-28 12:13:58.211
202.0, 25434.139422671728, -4400.857317549863, 15310.140289084948, -3113.1956712240785, 14773.810180879855, 7489.019034983998, -187500.02235174447, -187500.02235174447, -0.186, -0.754, -0.642, 192.0, 0.0, 0.0, 0.0, 0.0, 0.0, 0.0, 0.0, 0.0, 0.0, 1.677615238214356E9, 0.0, 2023-02-28 12:13:58.214
203.0, 25393.571006485345, -4402.645457106288, 14944.130473629293, -3115.5426043918856, 14576.421925595037, 7422.433188251637, -187500.02235174447, -187500.02235174447, -0.186, -0.754, -0.642, 192.0, 0.0, 0.0, 0.0, 0.0, 0.0, 0.0, 0.0, 0.0, 0.0, 1.6776152382193346E9, 0.0, 2023-02-28 12:13:58.219
204.0, 25513.689281188166, -4406.4899571526, 15627.266839416843, -3127.746656864483, 14927.031389120984, 7749.081581721495, -187500.02235174447, -187500.02235174447, -0.186, -0.754, -0.642, 192.0, 0.0, 0.0, 0.0, 0.0, 0.0, 0.0, 0.0, 0.0, 0.0, 1.677615238223309E9, 0.0, 2023-02-28 12:13:58.223
205.0, 25574.910709251253, -4405.573535629933, 16094.530057255037, -3126.9866975530026, 15173.504075229655, 7871.792658781131, -187500.02235174447, -187500.02235174447, -0.186, -0.754, -0.642, 192.0, 0.0, 0.0, 0.0, 0.0, 0.0, 0.0, 0.0, 0.0, 0.0, 1.677615238227362E9, 0.0, 2023-02-28 12:13:58.227
206.0, 25450.344437401825, -4404.724169340631, 15458.712334479373, -3115.9896392809915, 14846.721571293065, 7554.979032871608, -187500.02235174447, -187500.02235174447, -0.186, -0.754, -0.642, 192.0, 0.0, 0.0, 0.0, 0.0, 0.0, 0.0, 0.0, 0.0, 0.0, 1.6776152382313716E9, 0.0, 2023-02-28 12:13:58.231
207.0, 25378.50593072247, -4406.221736219137, 14922.516336741011, -3116.2578602144554, 14563.636727766601, 7402.8083566198775, -187500.02235174447, -187500.02235174447, -0.186, -0.754, -0.642, 192.0, 0.0, 0.0, 0.0, 0.0, 0.0, 0.0, 0.0, 0.0, 0.0, 1.677615238236368E9, 0.0, 2023-02-28 12:13:58.236
208.0, 25489.549397176434, -4408.009875775561, 15473.419782330964, -3127.3890289531982, 14844.776969525454, 7690.318845548492, -187500.02235174447, -187500.02235174447, -0.186, -0.754, -0.642, 192.0, 0.0, 0.0, 0.0, 0.0, 0.0, 0.0, 0.0, 0.0, 0.0, 1.6776152382393606E9, 0.0, 2023-02-28 12:13:58.239
209.0, 25581.81739828794, -4406.020570519039, 16098.531019512538, -3129.4453894430867, 15174.398145007866, 7890.434013656857, -187500.02235174447, -187500.02235174447, -0.186, -0.746, -0.642, 192.0, 250.0, 48.0, 232.0, 176.0, 235.0, 240.0, 0.0, 0.0, 0.0, 1.67761523824236E9, 0.0, 2023-02-28 12:13:58.242
210.0, 25491.873978599786, -4402.846622806385, 15606.859696729149, -3119.364752693743, 14927.925458899195, 7609.785510276021, -187500.02235174447, -187500.02235174447, -0.186, -0.746, -0.642, 192.0, 0.0, 0.0, 0.0, 0.0, 0.0, 0.0, 0.0, 0.0, 0.0, 1.6776152382463684E9, 0.0, 2023-02-28 12:13:58.246
211.0, 25383.78094241392, -4407.406378675268, 14935.905031669741, -3117.8224823263267, 14573.60560579367, 7378.601417374781, -187500.02235174447, -187500.02235174447, -0.186, -0.746, -0.642, 192.0, 0.0, 0.0, 0.0, 0.0, 0.0, 0.0, 0.0, 0.0, 0.0, 1.677615238251386E9, 0.0, 2023-02-28 12:13:58.251
212.0, 25453.89836477022, -4415.050675278982, 15328.513423027209, -3128.8418923427935, 14764.087172041794, 7621.453120881692, -187500.02235174447, -187500.02235174447, -0.186, -0.746, -0.642, 192.0, 0.0, 0.0, 0.0, 0.0, 0.0, 0.0, 0.0, 0.0, 0.0, 1.6776152382554274E9, 0.0, 2023-02-28 12:13:58.255
213.0, 25576.900014507773, -4414.760102601064, 16065.696306907692, -3133.1557790226675, 15147.620755150409, 7891.5292491351665, -187500.02235174447, -187500.02235174447, -0.186, -0.746, -0.642, 192.0, 0.0, 0.0, 0.0, 0.0, 0.0, 0.0, 0.0, 0.0, 0.0, 1.6776152382593977E9, 0.0, 2023-02-28 12:13:58.259
214.0, 25515.276255044493, -4408.523965898034, 15752.123683944188, -3121.622278883729, 14997.238218455102, 7688.642464714345, -187500.02235174447, -187500.02235174447, -0.186, -0.746, -0.642, 192.0, 0.0, 0.0, 0.0, 0.0, 0.0, 0.0, 0.0, 0.0, 0.0, 1.677615238263379E9, 0.0, 2023-02-28 12:13:58.263
215.0, 25398.622500732246, -4406.2440879635915, 14988.92336951773, -3115.8555288142597, 14603.26637068586, 7394.918190827155, -187500.02235174447, -187500.02235174447, -0.186, -0.746, -0.642, 192.0, 0.0, 0.0, 0.0, 0.0, 0.0, 0.0, 0.0, 0.0, 0.0, 1.6776152382663522E9, 0.0, 2023-02-28 12:13:58.266
216.0, 25449.092739712327, -4407.898117053284, 15191.944264405283, -3124.885633574204, 14701.81521198931, 7559.292919551483, -187500.02235174447, -187500.02235174447, -0.186, -0.746, -0.642, 192.0, 0.0, 0.0, 0.0, 0.0, 0.0, 0.0, 0.0, 0.0, 0.0, 1.6776152382703872E9, 0.0, 2023-02-28 12:13:58.270
217.0, 25580.990383743094, -4405.77470133003, 15991.175590893698, -3131.8593778442596, 15113.176716944781, 7875.100716960516, -187500.02235174447, -187500.02235174447, -0.186, -0.746, -0.642, 192.0, 0.0, 0.0, 0.0, 0.0, 0.0, 0.0, 0.0, 0.0, 0.0, 1.6776152382744925E9, 0.0, 2023-02-28 12:13:58.274
218.0, 25547.68628450469, -4399.560916371455, 15881.339118640319, -3122.0022585394695, 15059.68899246323, 7750.400334644358, -187500.02235174447, -187500.02235174447, -0.186, -0.746, -0.642, 192.0, 0.0, 0.0, 0.0, 0.0, 0.0, 0.0, 0.0, 0.0, 0.0, 1.6776152382795E9, 0.0, 2023-02-28 12:13:58.279
219.0, 25414.6487015067, -4398.733901826608, 15075.826951959963, -3114.2909067023884, 14641.487853704437, 7430.5692232333695, -187500.02235174447, -187500.02235174447, -0.186, -0.744, -0.638, 192.0, 250.0, 48.0, 232.0, 192.0, 236.0, 16.0, 0.0, 0.0, 0.0, 1.6776152382834482E9, 0.0, 2023-02-28 12:13:58.283
220.0, 25435.636989550232, -4402.936029784207, 15077.905664194306, -3122.4492934285754, 14639.498548447913, 7514.5670788964135, -187500.02235174447, -187500.02235174447, -0.186, -0.744, -0.638, 192.0, 0.0, 0.0, 0.0, 0.0, 0.0, 0.0, 0.0, 0.0, 0.0, 1.6776152382874467E9, 0.0, 2023-02-28 12:13:58.287
221.0, 25576.3859243853, -4403.91950654024, 15884.133086697233, -3131.9934883109913, 15053.944594138216, 7850.312632359581, -187500.02235174447, -187500.02235174447, -0.186, -0.744, -0.638, 192.0, 0.0, 0.0, 0.0, 0.0, 0.0, 0.0, 0.0, 0.0, 0.0, 1.6776152382904515E9, 0.0, 2023-02-28 12:13:58.290
222.0, 25555.040008430482, -4406.802881574975, 15987.107573402833, -3126.3161452193435, 15115.121318712392, 7804.424500992835, -187500.02235174447, -187500.02235174447, -0.186, -0.744, -0.638, 192.0, 0.0, 0.0, 0.0, 0.0, 0.0, 0.0, 0.0, 0.0, 0.0, 1.6776152382947402E9, 0.0, 2023-02-28 12:13:58.294
223.0, 25420.549562042903, -4403.87480305133, 15194.224142339724, -3115.721418347528, 14714.91333424012, 7453.658575255701, -187500.02235174447, -187500.02235174447, -0.186, -0.744, -0.638, 192.0, 0.0, 0.0, 0.0, 0.0, 0.0, 0.0, 0.0, 0.0, 0.0, 1.6776152382984688E9, 0.0, 2023-02-28 12:13:58.298
224.0, 25426.204553390093, -4400.7232070831315, 14988.20811369516, -3119.9011945606703, 14607.55790562128, 7449.747019976023, -187500.02235174447, -187500.02235174447, -0.186, -0.744, -0.638, 192.0, 0.0, 0.0, 0.0, 0.0, 0.0, 0.0, 0.0, 0.0, 0.0, 1.6776152383024771E9, 0.0, 2023-02-28 12:13:58.302
225.0, 25556.783444497996, -4403.897154795784, 15748.793274020349, -3131.457046444064, 14991.180895707716, 7791.773413631131, -187500.02235174447, -187500.02235174447, -0.186, -0.744, -0.638, 192.0, 0.0, 0.0, 0.0, 0.0, 0.0, 0.0, 0.0, 0.0, 0.0, 1.677615238307443E9, 0.0, 2023-02-28 12:13:58.307
226.0, 25582.286784921504, -4405.35001818538, 16063.595242928892, -3129.177168509623, 15149.341839473467, 7842.936556689329, -187500.02235174447, -187500.02235174447, -0.186, -0.744, -0.638, 192.0, 0.0, 0.0, 0.0, 0.0, 0.0, 0.0, 0.0, 0.0, 0.0, 1.677615238311507E9, 0.0, 2023-02-28 12:13:58.311
227.0, 25453.69719907012, -4402.556050128466, 15335.978905675282, -3118.6718486156287, 14774.391326235693, 7504.799366569444, -187500.02235174447, -187500.02235174447, -0.186, -0.744, -0.638, 192.0, 0.0, 0.0, 0.0, 0.0, 0.0, 0.0, 0.0, 0.0, 0.0, 1.677615238315485E9, 0.0, 2023-02-28 12:13:58.315
228.0, 25415.900399196198, -4399.985599516106, 14938.296668326459, -3120.325877705321, 14570.230492380917, 7421.695580684613, -187500.02235174447, -187500.02235174447, -0.186, -0.744, -0.638, 192.0, 0.0, 0.0, 0.0, 0.0, 0.0, 0.0, 0.0, 0.0, 0.0, 1.6776152383185575E9, 0.0, 2023-02-28 12:13:58.318
229.0, 25533.33646456438, -4403.695989095687, 15603.66339727204, -3132.2840609889104, 14908.591199945355, 7740.476160106202, -187500.02235174447, -187500.02235174447, -0.188, -0.75, -0.642, 192.0, 250.0, 32.0, 232.0, 144.0, 235.0, 240.0, 0.0, 0.0, 0.0, 1.677615238322458E9, 0.0, 2023-02-28 12:13:58.322
230.0, 25598.06711650695, -4403.673637351231, 16102.017891647565, -3132.2393575, 15166.351517003957, 7879.951045507318, -187500.02235174447, -187500.02235174447, -0.188, -0.75, -0.642, 192.0, 0.0, 0.0, 0.0, 0.0, 0.0, 0.0, 0.0, 0.0, 0.0, 1.6776152383265033E9, 0.0, 2023-02-28 12:13:58.326
231.0, 25483.13444651776, -4401.706683839165, 15485.892055737026, -3121.2199474835334, 14850.454312617101, 7571.7428412130885, -187500.02235174447, -187500.02235174447, -0.188, -0.75, -0.642, 192.0, 0.0, 0.0, 0.0, 0.0, 0.0, 0.0, 0.0, 0.0, 0.0, 1.6776152383304498E9, 0.0, 2023-02-28 12:13:58.330
232.0, 25409.194875859605, -4401.1925937166925, 14924.036255363973, -3120.61645038324, 14554.293698584283, 7397.265123994962, -187500.02235174447, -187500.02235174447, -0.188, -0.75, -0.642, 192.0, 0.0, 0.0, 0.0, 0.0, 0.0, 0.0, 0.0, 0.0, 0.0, 1.6776152383354964E9, 0.0, 2023-02-28 12:13:58.335
233.0, 25505.597949695344, -4407.0040472750725, 15451.20214834239, -3132.5075784334636, 14821.620562269756, 7673.957368607208, -187500.02235174447, -187500.02235174447, -0.188, -0.75, -0.642, 192.0, 0.0, 0.0, 0.0, 0.0, 0.0, 0.0, 0.0, 0.0, 0.0, 1.6776152383394396E9, 0.0, 2023-02-28 12:13:58.339
234.0, 25596.457790906166, -4412.860204322363, 16102.509630025583, -3137.827293613827, 15159.020144822616, 7886.343644421536, -187500.02235174447, -187500.02235174447, -0.188, -0.75, -0.642, 192.0, 0.0, 0.0, 0.0, 0.0, 0.0, 0.0, 0.0, 0.0, 0.0, 1.677615238343578E9, 0.0, 2023-02-28 12:13:58.343
235.0, 25502.24518802705, -4412.927259555729, 15642.600136113184, -3128.439560942598, 14924.617400719811, 7617.496862113102, -187500.02235174447, -187500.02235174447, -0.188, -0.75, -0.642, 192.0, 0.0, 0.0, 0.0, 0.0, 0.0, 0.0, 0.0, 0.0, 0.0, 1.677615238346476E9, 0.0, 2023-02-28 12:13:58.346
236.0, 25393.950986141084, -4415.721227612642, 14952.042991166472, -3124.7068196185614, 14563.92730044452, 7389.218495991051, -187500.02235174447, -187500.02235174447, -0.188, -0.75, -0.642, 192.0, 0.0, 0.0, 0.0, 0.0, 0.0, 0.0, 0.0, 0.0, 0.0, 1.6776152383505185E9, 0.0, 2023-02-28 12:13:58.350
237.0, 25473.90317605772, -4417.39760844679, 15306.943989627838, -3134.630994156718, 14739.76847407442, 7612.914754499764, -187500.02235174447, -187500.02235174447, -0.188, -0.75, -0.642, 192.0, 0.0, 0.0, 0.0, 0.0, 0.0, 0.0, 0.0, 0.0, 0.0, 1.6776152383545012E9, 0.0, 2023-02-28 12:13:58.354
238.0, 25587.07005823494, -4416.481186924122, 16062.857635361868, -3139.078991303324, 15125.157251972825, 7899.173545738882, -187500.02235174447, -187500.02235174447, -0.188, -0.75, -0.642, 192.0, 0.0, 0.0, 0.0, 0.0, 0.0, 0.0, 0.0, 0.0, 0.0, 1.6776152383585098E9, 0.0, 2023-02-28 12:13:58.358
239.0, 25528.933170906686, -4412.8155008334525, 15785.941873305068, -3128.171340009134, 14991.96320676365, 7694.208049083716, -187500.02235174447, -187500.02235174447, -0.188, -0.75, -0.642, 192.0, 0.0, 0.0, 0.0, 0.0, 0.0, 0.0, 0.0, 0.0, 0.0, 1.6776152383634627E9, 0.0, 2023-02-28 12:13:58.363
240.0, 25410.11129738227, -4409.239221720603, 15010.82807908393, -3120.325877705321, 14600.137126462118, 7403.814185120366, -187500.02235174447, -187500.02235174447, -0.19, -0.746, -0.646, 192.0, 250.0, 16.0, 232.0, 176.0, 235.0, 208.0, 0.0, 0.0, 0.0, 1.6776152383674655E9, 0.0, 2023-02-28 12:13:58.367
241.0, 25458.547527616924, -4410.870899065841, 15175.67219444182, -3128.372505709232, 14679.016432644896, 7559.516436996036, -187500.02235174447, -187500.02235174447, -0.19, -0.746, -0.646, 192.0, 0.0, 0.0, 0.0, 0.0, 0.0, 0.0, 0.0, 0.0, 0.0, 1.6776152383714623E9, 0.0, 2023-02-28 12:13:58.371
242.0, 25594.44613390519, -4410.334457198913, 15982.234893111576, -3135.8379883573043, 15090.914379467295, 7881.672129830376, -187500.02235174447, -187500.02235174447, -0.19, -0.746, -0.646, 192.0, 0.0, 0.0, 0.0, 0.0, 0.0, 0.0, 0.0, 0.0, 0.0, 1.6776152383744924E9, 0.0, 2023-02-28 12:13:58.374
243.0, 25555.66585727523, -4408.769835087041, 15912.050415521911, -3127.724305120028, 15062.482960520145, 7758.692831837277, -187500.02235174447, -187500.02235174447, -0.19, -0.746, -0.646, 192.0, 0.0, 0.0, 0.0, 0.0, 0.0, 0.0, 0.0, 0.0, 0.0, 1.6776152383785248E9, 0.0, 2023-02-28 12:13:58.378
244.0, 25422.51651555497, -4406.020570519039, 15105.353606385424, -3118.42597942662, 14650.093275319728, 7428.579917976847, -187500.02235174447, -187500.02235174447, -0.19, -0.746, -0.646, 192.0, 0.0, 0.0, 0.0, 0.0, 0.0, 0.0, 0.0, 0.0, 0.0, 1.677615238382568E9, 0.0, 2023-02-28 12:13:58.382
245.0, 25451.484376369048, -4405.618239118843, 15068.093248378427, -3124.505653918464, 14624.74639710741, 7500.396072911749, -187500.02235174447, -187500.02235174447, -0.19, -0.746, -0.646, 192.0, 0.0, 0.0, 0.0, 0.0, 0.0, 0.0, 0.0, 0.0, 0.0, 1.677615238386534E9, 0.0, 2023-02-28 12:13:58.386
246.0, 25588.92525302473, -4407.764006586553, 15870.230301646032, -3134.7651046234496, 15038.164262552771, 7832.1853676063265, -187500.02235174447, -187500.02235174447, -0.19, -0.746, -0.646, 192.0, 0.0, 0.0, 0.0, 0.0, 0.0, 0.0, 0.0, 0.0, 0.0, 1.6776152383915524E9, 0.0, 2023-02-28 12:13:58.391
247.0, 25581.59388084339, -4407.518137397545, 16010.532201591994, -3128.9983545539803, 15117.89293502485, 7812.73934993021, -187500.02235174447, -187500.02235174447, -0.19, -0.746, -0.646, 192.0, 0.0, 0.0, 0.0, 0.0, 0.0, 0.0, 0.0, 0.0, 0.0, 1.677615238395632E9, 0.0, 2023-02-28 12:13:58.395
248.0, 25450.165623446184, -4403.5395268844995, 15225.226011899234, -3118.04599977088, 14716.120328440706, 7471.875246986777, -187500.02235174447, -187500.02235174447, -0.19, -0.746, -0.646, 192.0, 0.0, 0.0, 0.0, 0.0, 0.0, 0.0, 0.0, 0.0, 0.0, 1.6776152383995411E9, 0.0, 2023-02-28 12:13:58.399
249.0, 25439.481489596546, -4403.897154795784, 14983.290729914992, -3122.3598864507544, 14588.715385045456, 7455.446714812126, -187500.02235174447, -187500.02235174447, -0.19, -0.746, -0.646, 192.0, 0.0, 0.0, 0.0, 0.0, 0.0, 0.0, 0.0, 0.0, 0.0, 1.6776152384025483E9, 0.0, 2023-02-28 12:13:58.402
250.0, 25571.513244094043, -4406.981695530617, 15729.459015066508, -3134.720401134539, 14968.471523341123, 7788.957093829763, -187500.02235174447, -187500.02235174447, -0.19, -0.746, -0.648, 192.0, 250.0, 16.0, 232.0, 176.0, 235.0, 192.0, 0.0, 0.0, 0.0, 1.6776152384065297E9, 0.0, 2023-02-28 12:13:58.406
251.0, 25609.48885792361, -4407.0040472750725, 16077.699193680191, -3132.8652063447485, 15150.548833674055, 7846.64694626891, -187500.02235174447, -187500.02235174447, -0.19, -0.746, -0.648, 192.0, 0.0, 0.0, 0.0, 0.0, 0.0, 0.0, 0.0, 0.0, 0.0, 1.6776152384107149E9, 0.0, 2023-02-28 12:13:58.410
252.0, 25475.490149914047, -4409.574497887433, 15369.171246191412, -3124.170377751634, 14783.175561806627, 7505.335808436372, -187500.02235174447, -187500.02235174447, -0.19, -0.746, -0.648, 192.0, 0.0, 0.0, 0.0, 0.0, 0.0, 0.0, 0.0, 0.0, 0.0, 1.6776152384145477E9, 0.0, 2023-02-28 12:13:58.414
253.0, 25415.36395732927, -4413.396646189291, 14940.218918349616, -3126.785531852905, 14552.527910772314, 7404.820013620855, -187500.02235174447, -187500.02235174447, -0.19, -0.746, -0.648, 192.0, 0.0, 0.0, 0.0, 0.0, 0.0, 0.0, 0.0, 0.0, 0.0, 1.677615238418584E9, 0.0, 2023-02-28 12:13:58.418
254.0, 25539.460842545133, -4414.4918816676, 15583.368013306621, -3137.8943488471928, 14877.857551319308, 7731.602517557445, -187500.02235174447, -187500.02235174447, -0.19, -0.746, -0.648, 192.0, 0.0, 0.0, 0.0, 0.0, 0.0, 0.0, 0.0, 0.0, 0.0, 1.6776152384235504E9, 0.0, 2023-02-28 12:13:58.423
255.0, 25618.384852216823, -4413.2848874670135, 16112.679673752747, -3138.6766599031284, 15154.549795931554, 7881.0239292411725, -187500.02235174447, -187500.02235174447, -0.19, -0.746, -0.648, 192.0, 0.0, 0.0, 0.0, 0.0, 0.0, 0.0, 0.0, 0.0, 0.0, 1.677615238426623E9, 0.0, 2023-02-28 12:13:58.426
0.0, 25493.304490244926, -4415.385951445813, 15520.492556153842, -3129.33363072081, 14851.750713795509, 7572.011062146553, -187500.02235174447, -187500.02235174447, -0.19, -0.746, -0.648, 192.0, 0.0, 0.0, 0.0, 0.0, 0.0, 0.0, 0.0, 0.0, 0.0, 1.677615238430736E9, 0.0, 2023-02-28 12:13:58.430
1.0, 25412.055899149884, -4415.20713749017, 14932.060531623429, -3127.724305120028, 14548.370486303627, 7390.0678622803525, -187500.02235174447, -187500.02235174447, -0.19, -0.746, -0.648, 192.0, 0.0, 0.0, 0.0, 0.0, 0.0, 0.0, 0.0, 0.0, 0.0, 1.6776152384345667E9, 0.0, 2023-02-28 12:13:58.434
2.0, 25515.700938189144, -4420.191576503704, 15433.611325456062, -3139.548377936885, 14800.699329459589, 7658.42290621077, -187500.02235174447, -187500.02235174447, -0.19, -0.746, -0.648, 192.0, 0.0, 0.0, 0.0, 0.0, 0.0, 0.0, 0.0, 0.0, 0.0, 1.6776152384385777E9, 0.0, 2023-02-28 12:13:58.438
3.0, 25609.041823034506, -4425.0866085394155, 16106.063557393976, -3144.041078572402, 15147.687810383775, 7887.282417688659, -187500.02235174447, -187500.02235174447, -0.19, -0.746, -0.648, 192.0, 0.0, 0.0, 0.0, 0.0, 0.0, 0.0, 0.0, 0.0, 0.0, 1.6776152384426413E9, 0.0, 2023-02-28 12:13:58.442
4.0, 25514.404537010734, -4425.801864361985, 15674.987813828924, -3135.301546490377, 14933.334581057381, 7628.5609756184795, -187500.02235174447, -187500.02235174447, -0.182, -0.746, -0.65, 192.0, 250.0, 80.0, 232.0, 176.0, 235.0, 176.0, 0.0, 0.0, 0.0, 1.6776152384466317E9, 0.0, 2023-02-28 12:13:58.446
5.0, 25417.420317819156, -4424.9077945837735, 14966.012831451038, -3131.814674355349, 14565.849550467678, 7376.276835951428, -187500.02235174447, -187500.02235174447, -0.182, -0.746, -0.65, 192.0, 0.0, 0.0, 0.0, 0.0, 0.0, 0.0, 0.0, 0.0, 0.0, 1.677615238451582E9, 0.0, 2023-02-28 12:13:58.451
6.0, 25492.924510589186, -4427.5453004295, 15292.571817943075, -3141.045944815391, 14722.57998258829, 7595.83802173591, -187500.02235174447, -187500.02235174447, -0.182, -0.746, -0.65, 192.0, 0.0, 0.0, 0.0, 0.0, 0.0, 0.0, 0.0, 0.0, 0.0, 1.677615238454576E9, 0.0, 2023-02-28 12:13:58.454
7.0, 25602.4927619091, -4431.099227797893, 16059.907205093767, -3147.237378029511, 15115.27778092358, 7888.556467122611, -187500.02235174447, -187500.02235174447, -0.182, -0.746, -0.65, 192.0, 0.0, 0.0, 0.0, 0.0, 0.0, 0.0, 0.0, 0.0, 0.0, 1.6776152384586384E9, 0.0, 2023-02-28 12:13:58.458
8.0, 25542.880659446797, -4428.349963229891, 15817.010798097945, -3137.3132034913547, 14998.10993648886, 7698.030197385574, -187500.02235174447, -187500.02235174447, -0.182, -0.746, -0.65, 192.0, 0.0, 0.0, 0.0, 0.0, 0.0, 0.0, 0.0, 0.0, 0.0, 1.677615238462599E9, 0.0, 2023-02-28 12:13:58.462
9.0, 25418.157925386182, -4424.572518416943, 15030.40820722678, -3129.087761531802, 14596.136164204618, 7398.181545517629, -187500.02235174447, -187500.02235174447, -0.182, -0.746, -0.65, 192.0, 0.0, 0.0, 0.0, 0.0, 0.0, 0.0, 0.0, 0.0, 0.0, 1.677615238466607E9, 0.0, 2023-02-28 12:13:58.466
10.0, 25465.83419630935, -4422.784378860519, 15159.355420989445, -3135.1897877681004, 14664.487798748947, 7536.292974506971, -187500.02235174447, -187500.02235174447, -0.182, -0.746, -0.65, 192.0, 0.0, 0.0, 0.0, 0.0, 0.0, 0.0, 0.0, 0.0, 0.0, 1.677615238470596E9, 0.0, 2023-02-28 12:13:58.470
11.0, 25600.861084563865, -4423.253765494081, 15967.795666193446, -3143.4822849610196, 15079.000899672617, 7857.822818496564, -187500.02235174447, -187500.02235174447, -0.182, -0.746, -0.65, 192.0, 0.0, 0.0, 0.0, 0.0, 0.0, 0.0, 0.0, 0.0, 0.0, 1.6776152384746368E9, 0.0, 2023-02-28 12:13:58.474
12.0, 25589.97578501413, -4415.520061912544, 15932.099930298322, -3134.7651046234496, 15071.490713535633, 7757.82111380352, -187500.02235174447, -187500.02235174447, -0.182, -0.746, -0.65, 192.0, 0.0, 0.0, 0.0, 0.0, 0.0, 0.0, 0.0, 0.0, 0.0, 1.6776152384796872E9, 0.0, 2023-02-28 12:13:58.479
13.0, 25456.334704915847, -4408.926297298229, 15123.056187994027, -3124.1256742627234, 14659.033973101852, 7432.4467697676155, -187500.02235174447, -187500.02235174447, -0.182, -0.746, -0.65, 192.0, 0.0, 0.0, 0.0, 0.0, 0.0, 0.0, 0.0, 0.0, 0.0, 1.6776152384836698E9, 0.0, 2023-02-28 12:13:58.483
14.0, 25466.013010264996, -4410.982657788117, 15052.067047603972, -3129.8030173543716, 14615.492774902914, 7490.583657095869, -187500.02235174447, -187500.02235174447, -0.188, -0.744, -0.65, 192.0, 250.0, 32.0, 232.0, 192.0, 235.0, 176.0, 0.0, 0.0, 0.0, 1.6776152384866607E9, 0.0, 2023-02-28 12:13:58.486
15.0, 25606.761945100065, -4413.441349678201, 15846.42569380113, -3140.487151204008, 15017.757119865075, 7832.341829817514, -187500.02235174447, -187500.02235174447, -0.188, -0.744, -0.65, 192.0, 0.0, 0.0, 0.0, 0.0, 0.0, 0.0, 0.0, 0.0, 0.0, 1.677615238490678E9, 0.0, 2023-02-28 12:13:58.490
16.0, 25619.368328972858, -4409.954477543173, 16024.166765709731, -3135.7485813794833, 15119.681074581275, 7811.957038874274, -187500.02235174447, -187500.02235174447, -0.188, -0.744, -0.65, 192.0, 0.0, 0.0, 0.0, 0.0, 0.0, 0.0, 0.0, 0.0, 0.0, 1.6776152384946532E9, 0.0, 2023-02-28 12:13:58.494
17.0, 25478.17235924868, -4407.1828612307145, 15249.12002672196, -3124.818578340838, 14728.570250102312, 7468.14250566274, -187500.02235174447, -187500.02235174447, -0.188, -0.744, -0.65, 192.0, 0.0, 0.0, 0.0, 0.0, 0.0, 0.0, 0.0, 0.0, 0.0, 1.677615238498644E9, 0.0, 2023-02-28 12:13:58.498
18.0, 25454.345399659327, -4408.546317642488, 14976.607558322856, -3128.5513196648744, 14583.21685590945, 7427.32822028735, -187500.02235174447, -187500.02235174447, -0.188, -0.744, -0.65, 192.0, 0.0, 0.0, 0.0, 0.0, 0.0, 0.0, 0.0, 0.0, 0.0, 1.67761523850262E9, 0.0, 2023-02-28 12:13:58.502
19.0, 25589.01466000255, -4407.92046879774, 15705.944979899525, -3137.4473139580864, 14958.457941825145, 7760.033936504596, -187500.02235174447, -187500.02235174447, -0.188, -0.744, -0.65, 192.0, 0.0, 0.0, 0.0, 0.0, 0.0, 0.0, 0.0, 0.0, 0.0, 1.6776152385076497E9, 0.0, 2023-02-28 12:13:58.507
20.0, 25638.903753626797, -4406.3558466858685, 16082.9965571161, -3134.5415871788964, 15156.00265932115, 7845.395248579413, -187500.02235174447, -187500.02235174447, -0.188, -0.744, -0.65, 192.0, 0.0, 0.0, 0.0, 0.0, 0.0, 0.0, 0.0, 0.0, 0.0, 1.677615238510712E9, 0.0, 2023-02-28 12:13:58.510
21.0, 25512.14701082075, -4404.902983296273, 15390.718327846329, -3123.790398095894, 14797.480678258024, 7515.7964248414555, -187500.02235174447, -187500.02235174447, -0.188, -0.744, -0.65, 192.0, 0.0, 0.0, 0.0, 0.0, 0.0, 0.0, 0.0, 0.0, 0.0, 1.677615238514639E9, 0.0, 2023-02-28 12:13:58.514
22.0, 25446.254068166505, -4403.15954722876, 14935.189775847171, -3123.365714951243, 14559.479303297914, 7396.773385616945, -187500.02235174447, -187500.02235174447, -0.188, -0.744, -0.65, 192.0, 0.0, 0.0, 0.0, 0.0, 0.0, 0.0, 0.0, 0.0, 0.0, 1.6776152385187569E9, 0.0, 2023-02-28 12:13:58.518
23.0, 25572.49672085008, -4400.0750064939275, 15556.79178914926, -3132.1499505221786, 14872.18020822766, 7720.784273241076, -187500.02235174447, -187500.02235174447, -0.188, -0.744, -0.65, 192.0, 0.0, 0.0, 0.0, 0.0, 0.0, 0.0, 0.0, 0.0, 0.0, 1.677615238522656E9, 0.0, 2023-02-28 12:13:58.522
24.0, 25647.687989197733, -4401.304352438969, 16111.159755129785, -3133.848683100782, 15158.148426788859, 7880.979225752262, -187500.02235174447, -187500.02235174447, -0.184, -0.746, -0.654, 192.0, 250.0, 64.0, 232.0, 176.0, 235.0, 144.0, 0.0, 0.0, 0.0, 1.6776152385267437E9, 0.0, 2023-02-28 12:13:58.526
25.0, 25532.397691297258, -4400.63380010531, 15546.152358788535, -3123.9245085626258, 14871.33084193836, 7580.392966317292, -187500.02235174447, -187500.02235174447, -0.184, -0.746, -0.654, 192.0, 0.0, 0.0, 0.0, 0.0, 0.0, 0.0, 0.0, 0.0, 0.0, 1.677615238530797E9, 0.0, 2023-02-28 12:13:58.530
26.0, 25443.32598964286, -4401.840794305896, 14934.38511304678, -3123.298659717877, 14556.439466051992, 7379.182562730618, -187500.02235174447, -187500.02235174447, -0.184, -0.746, -0.654, 192.0, 0.0, 0.0, 0.0, 0.0, 0.0, 0.0, 0.0, 0.0, 0.0, 1.6776152385356984E9, 0.0, 2023-02-28 12:13:58.535
27.0, 25538.05268264445, -4405.461776907656, 15406.632769898508, -3134.630994156718, 14796.027814868428, 7641.010897280085, -187500.02235174447, -187500.02235174447, -0.184, -0.746, -0.654, 192.0, 0.0, 0.0, 0.0, 0.0, 0.0, 0.0, 0.0, 0.0, 0.0, 1.6776152385386548E9, 0.0, 2023-02-28 12:13:58.538
28.0, 25649.677294454254, -4403.0701402509385, 16096.832286933934, -3137.7602383804606, 15152.247566252658, 7886.768327566187, -187500.02235174447, -187500.02235174447, -0.184, -0.746, -0.654, 192.0, 0.0, 0.0, 0.0, 0.0, 0.0, 0.0, 0.0, 0.0, 0.0, 1.6776152385426996E9, 0.0, 2023-02-28 12:13:58.542
29.0, 25575.849482518373, -4398.488032637601, 15696.087860594735, -3127.165511508645, 14955.283994112491, 7648.118752016873, -187500.02235174447, -187500.02235174447, -0.184, -0.746, -0.654, 192.0, 0.0, 0.0, 0.0, 0.0, 0.0, 0.0, 0.0, 0.0, 0.0, 1.6776152385467145E9, 0.0, 2023-02-28 12:13:58.546
30.0, 25457.89932702772, -4401.259648950058, 14973.05363095446, -3124.215081240545, 14579.104134929674, 7389.419661691149, -187500.02235174447, -187500.02235174447, -0.184, -0.746, -0.654, 192.0, 0.0, 0.0, 0.0, 0.0, 0.0, 0.0, 0.0, 0.0, 0.0, 1.6776152385507095E9, 0.0, 2023-02-28 12:13:58.550
31.0, 25513.823391654896, -4407.361675186357, 15267.671974619863, -3135.0780290458238, 14727.29620066836, 7582.292864595994, -187500.02235174447, -187500.02235174447, -0.184, -0.746, -0.654, 192.0, 0.0, 0.0, 0.0, 0.0, 0.0, 0.0, 0.0, 0.0, 0.0, 1.677615238554687E9, 0.0, 2023-02-28 12:13:58.554
32.0, 25636.06508208097, -4411.474396166133, 16044.663315375248, -3142.2529390159775, 15129.85111830844, 7868.12697269046, -187500.02235174447, -187500.02235174447, -0.184, -0.746, -0.654, 192.0, 0.0, 0.0, 0.0, 0.0, 0.0, 0.0, 0.0, 0.0, 0.0, 1.6776152385586855E9, 0.0, 2023-02-28 12:13:58.558
33.0, 25591.987442015106, -4407.316971697446, 15837.663809974649, -3131.948784822081, 15028.396550225802, 7704.154575366328, -187500.02235174447, -187500.02235174447, -0.184, -0.746, -0.654, 192.0, 0.0, 0.0, 0.0, 0.0, 0.0, 0.0, 0.0, 0.0, 0.0, 1.6776152385636902E9, 0.0, 2023-02-28 12:13:58.563
34.0, 25461.676771840666, -4403.472471651134, 15048.758989424587, -3123.1198457622345, 14621.08071101674, 7402.428376964138, -187500.02235174447, -187500.02235174447, -0.184, -0.75, -0.648, 192.0, 250.0, 64.0, 232.0, 144.0, 235.0, 192.0, 0.0, 0.0, 0.0, 1.6776152385667353E9, 0.0, 2023-02-28 12:13:58.566
35.0, 25488.61062390931, -4407.451082164179, 15145.51969117161, -3131.054715043869, 14664.063115604296, 7528.514567436525, -187500.02235174447, -187500.02235174447, -0.184, -0.75, -0.648, 192.0, 0.0, 0.0, 0.0, 0.0, 0.0, 0.0, 0.0, 0.0, 0.0, 1.6776152385706975E9, 0.0, 2023-02-28 12:13:58.570
36.0, 25629.49366921111, -4408.076931008927, 15952.06003809691, -3140.129523292723, 15084.03004217506, 7854.045373683617, -187500.02235174447, -187500.02235174447, -0.184, -0.75, -0.648, 192.0, 0.0, 0.0, 0.0, 0.0, 0.0, 0.0, 0.0, 0.0, 0.0, 1.6776152385746825E9, 0.0, 2023-02-28 12:13:58.574
37.0, 25611.20994224667, -4406.44525366369, 15953.49054974205, -3133.647517400684, 15094.423603346779, 7761.732669083199, -187500.02235174447, -187500.02235174447, -0.184, -0.75, -0.648, 192.0, 0.0, 0.0, 0.0, 0.0, 0.0, 0.0, 0.0, 0.0, 0.0, 1.6776152385787172E9, 0.0, 2023-02-28 12:13:58.578
38.0, 25479.558167404914, -4400.320875682935, 15150.258260996136, -3122.8292730843154, 14682.123325124185, 7426.031819108942, -187500.02235174447, -187500.02235174447, -0.184, -0.75, -0.648, 192.0, 0.0, 0.0, 0.0, 0.0, 0.0, 0.0, 0.0, 0.0, 0.0, 1.6776152385827277E9, 0.0, 2023-02-28 12:13:58.582
39.0, 25486.598966908332, -4401.952553028173, 15043.305163777492, -3128.5066161759637, 14619.493737160414, 7466.443773084137, -187500.02235174447, -187500.02235174447, -0.184, -0.75, -0.648, 192.0, 0.0, 0.0, 0.0, 0.0, 0.0, 0.0, 0.0, 0.0, 0.0, 1.6776152385867095E9, 0.0, 2023-02-28 12:13:58.586
40.0, 25620.88824759582, -4405.104148996371, 15829.237202314998, -3139.3695639812427, 15018.964114065662, 7814.7510069311875, -187500.02235174447, -187500.02235174447, -0.184, -0.75, -0.648, 192.0, 0.0, 0.0, 0.0, 0.0, 0.0, 0.0, 0.0, 0.0, 0.0, 1.677615238591719E9, 0.0, 2023-02-28 12:13:58.591
41.0, 25628.733709899632, -4406.4899571526, 16042.852824074367, -3134.228662756522, 15135.796682333552, 7821.9706203902515, -187500.02235174447, -187500.02235174447, -0.184, -0.75, -0.648, 192.0, 0.0, 0.0, 0.0, 0.0, 0.0, 0.0, 0.0, 0.0, 0.0, 1.67761523859476E9, 0.0, 2023-02-28 12:13:58.594
42.0, 25496.925472846684, -4406.10997749686, 15282.669995149374, -3124.61741264074, 14743.411808420637, 7477.083203444863, -187500.02235174447, -187500.02235174447, -0.184, -0.75, -0.648, 192.0, 0.0, 0.0, 0.0, 0.0, 0.0, 0.0, 0.0, 0.0, 0.0, 1.6776152385987446E9, 0.0, 2023-02-28 12:13:58.598
43.0, 25471.332725445358, -4406.959343786161, 14976.67461355622, -3128.484264431508, 14580.467591341448, 7425.450673753104, -187500.02235174447, -187500.02235174447, -0.184, -0.75, -0.648, 192.0, 0.0, 0.0, 0.0, 0.0, 0.0, 0.0, 0.0, 0.0, 0.0, 1.6776152386027718E9, 0.0, 2023-02-28 12:13:58.602
44.0, 25600.816381074954, -4407.1828612307145, 15686.81188664578, -3138.6766599031284, 14950.500720799057, 7757.374078914414, -187500.02235174447, -187500.02235174447, -0.186, -0.754, -0.642, 192.0, 250.0, 48.0, 232.0, 112.0, 235.0, 240.0, 0.0, 0.0, 0.0, 1.6776152386067595E9, 0.0, 2023-02-28 12:13:58.606
45.0, 25639.619009449365, -4406.422901919234, 16096.921693911756, -3136.7097063910614, 15166.262110026135, 7852.547806805112, -187500.02235174447, -187500.02235174447, -0.186, -0.754, -0.642, 192.0, 0.0, 0.0, 0.0, 0.0, 0.0, 0.0, 0.0, 0.0, 0.0, 1.67761523861084E9, 0.0, 2023-02-28 12:13:58.610
46.0, 25508.503676474535, -4404.791224573997, 15425.363531752055, -3125.4444271855864, 14821.97819018104, 7520.110311521329, -187500.02235174447, -187500.02235174447, -0.186, -0.754, -0.642, 192.0, 0.0, 0.0, 0.0, 0.0, 0.0, 0.0, 0.0, 0.0, 0.0, 1.6776152386147509E9, 0.0, 2023-02-28 12:13:58.614
47.0, 25449.159794945695, -4405.841756563396, 14941.38120906129, -3125.8020550968713, 14569.649347025079, 7376.612112118258, -187500.02235174447, -187500.02235174447, -0.186, -0.754, -0.642, 192.0, 0.0, 0.0, 0.0, 0.0, 0.0, 0.0, 0.0, 0.0, 0.0, 1.6776152386187997E9, 0.0, 2023-02-28 12:13:58.618
48.0, 25569.546290581977, -4404.791224573997, 15533.322457471188, -3133.982793567514, 14874.41538267319, 7690.207086826216, -187500.02235174447, -187500.02235174447, -0.186, -0.754, -0.642, 192.0, 0.0, 0.0, 0.0, 0.0, 0.0, 0.0, 0.0, 0.0, 0.0, 1.677615238621755E9, 0.0, 2023-02-28 12:13:58.621
49.0, 25655.42169277927, -4402.153718728271, 16110.466851051671, -3133.848683100782, 15180.14254333288, 7877.738222806242, -187500.02235174447, -187500.02235174447, -0.186, -0.754, -0.642, 192.0, 0.0, 0.0, 0.0, 0.0, 0.0, 0.0, 0.0, 0.0, 0.0, 1.6776152386268313E9, 0.0, 2023-02-28 12:13:58.626
50.0, 25551.731950251098, -4397.996294259584, 15573.108562601634, -3122.628107384218, 14909.909952868218, 7585.980902431119, -187500.02235174447, -187500.02235174447, -0.186, -0.754, -0.642, 192.0, 0.0, 0.0, 0.0, 0.0, 0.0, 0.0, 0.0, 0.0, 0.0, 1.677615238630804E9, 0.0, 2023-02-28 12:13:58.630
51.0, 25441.202573919603, -4403.517175140045, 14942.208223606138, -3121.33170620581, 14576.98071920642, 7379.786059830912, -187500.02235174447, -187500.02235174447, -0.186, -0.754, -0.642, 192.0, 0.0, 0.0, 0.0, 0.0, 0.0, 0.0, 0.0, 0.0, 0.0, 1.6776152386347787E9, 0.0, 2023-02-28 12:13:58.634
52.0, 25529.424909284702, -4407.0040472750725, 15383.878694043005, -3132.038191799902, 14800.40875678167, 7636.495844900113, -187500.02235174447, -187500.02235174447, -0.186, -0.754, -0.642, 192.0, 0.0, 0.0, 0.0, 0.0, 0.0, 0.0, 0.0, 0.0, 0.0, 1.6776152386387663E9, 0.0, 2023-02-28 12:13:58.638
53.0, 25635.372178002857, -4407.518137397545, 16092.317234553962, -3136.821465113338, 15166.440923981778, 7881.3145019190915, -187500.02235174447, -187500.02235174447, -0.186, -0.754, -0.642, 192.0, 0.0, 0.0, 0.0, 0.0, 0.0, 0.0, 0.0, 0.0, 0.0, 1.6776152386428404E9, 0.0, 2023-02-28 12:13:58.642
54.0, 25552.33544735139, -4404.344189684891, 15725.16748013109, -3126.562014408352, 14984.229503182114, 7648.968118306175, -187500.02235174447, -187500.02235174447, -0.184, -0.758, -0.64, 192.0, 250.0, 64.0, 232.0, 80.0, 236.0, 0.0, 0.0, 0.0, 0.0, 1.6776152386468108E9, 0.0, 2023-02-28 12:13:58.646
55.0, 25439.280323896448, -4405.1265007408265, 14986.755250305565, -3122.4716451730305, 14604.339254419716, 7374.488696395004, -187500.02235174447, -187500.02235174447, -0.184, -0.758, -0.64, 192.0, 0.0, 0.0, 0.0, 0.0, 0.0, 0.0, 0.0, 0.0, 0.0, 1.6776152386518345E9, 0.0, 2023-02-28 12:13:58.651
56.0, 25507.5201997185, -4409.306276953969, 15248.471826132754, -3132.462874944553, 14734.158186216138, 7558.488256751091, -187500.02235174447, -187500.02235174447, -0.184, -0.758, -0.64, 192.0, 0.0, 0.0, 0.0, 0.0, 0.0, 0.0, 0.0, 0.0, 0.0, 1.6776152386548066E9, 0.0, 2023-02-28 12:13:58.654
57.0, 25630.767718645064, -4415.050675278982, 16032.54866988047, -3139.6377849147066, 15133.963839288217, 7867.925806990363, -187500.02235174447, -187500.02235174447, -0.184, -0.758, -0.64, 192.0, 0.0, 0.0, 0.0, 0.0, 0.0, 0.0, 0.0, 0.0, 0.0, 1.6776152386588008E9, 0.0, 2023-02-28 12:13:58.658
58.0, 25574.53072959551, -4415.765931101552, 15863.345964353797, -3130.8535493437707, 15050.480073747645, 7709.876621946886, -187500.02235174447, -187500.02235174447, -0.184, -0.758, -0.64, 192.0, 0.0, 0.0, 0.0, 0.0, 0.0, 0.0, 0.0, 0.0, 0.0, 1.677615238662818E9, 0.0, 2023-02-28 12:13:58.662
59.0, 25448.42218737867, -4414.246012478592, 15069.277890834557, -3124.3715434517317, 14644.930022350554, 7388.994978546498, -187500.02235174447, -187500.02235174447, -0.184, -0.758, -0.64, 192.0, 0.0, 0.0, 0.0, 0.0, 0.0, 0.0, 0.0, 0.0, 0.0, 1.6776152386667953E9, 0.0, 2023-02-28 12:13:58.666
60.0, 25478.217062737593, -4416.592945646399, 15132.622734620898, -3131.7923226108937, 14669.315775551293, 7504.374683424793, -187500.02235174447, -187500.02235174447, -0.184, -0.758, -0.64, 192.0, 0.0, 0.0, 0.0, 0.0, 0.0, 0.0, 0.0, 0.0, 0.0, 1.6776152386708713E9, 0.0, 2023-02-28 12:13:58.670
61.0, 25610.695852124198, -4418.291678225002, 15939.699523413126, -3141.113000048757, 15083.024213674571, 7837.818007209064, -187500.02235174447, -187500.02235174447, -0.184, -0.758, -0.64, 192.0, 0.0, 0.0, 0.0, 0.0, 0.0, 0.0, 0.0, 0.0, 0.0, 1.677615238673813E9, 0.0, 2023-02-28 12:13:58.673
62.0, 25597.68713685121, -4413.821329333941, 15979.73149773258, -3133.7816278674163, 15112.595571588943, 7763.96784352873, -187500.02235174447, -187500.02235174447, -0.184, -0.758, -0.64, 192.0, 0.0, 0.0, 0.0, 0.0, 0.0, 0.0, 0.0, 0.0, 0.0, 1.6776152386778216E9, 0.0, 2023-02-28 12:13:58.677
63.0, 25461.36384741829, -4413.664867122754, 15182.042441611582, -3125.0644475298463, 14701.81521198931, 7420.734455673034, -187500.02235174447, -187500.02235174447, -0.184, -0.758, -0.64, 192.0, 0.0, 0.0, 0.0, 0.0, 0.0, 0.0, 0.0, 0.0, 0.0, 1.6776152386818788E9, 0.0, 2023-02-28 12:13:58.681
64.0, 25456.46881538258, -4418.738713114109, 15041.807596898985, -3131.7923226108937, 14620.36545519417, 7446.640127496735, -187500.02235174447, -187500.02235174447, -0.184, -0.756, -0.644, 192.0, 250.0, 64.0, 232.0, 96.0, 235.0, 224.0, 0.0, 0.0, 0.0, 1.6776152386869013E9, 0.0, 2023-02-28 12:13:58.686
65.0, 25586.578319856922, -4422.739675371608, 15820.050635343867, -3143.459933216564, 15019.478204188134, 7784.576151916523, -187500.02235174447, -187500.02235174447, -0.184, -0.756, -0.644, 192.0, 0.0, 0.0, 0.0, 0.0, 0.0, 0.0, 0.0, 0.0, 0.0, 1.6776152386908813E9, 0.0, 2023-02-28 12:13:58.690
66.0, 25600.324642696934, -4424.125483527838, 16069.518455209549, -3139.9283575926256, 15157.030839566094, 7803.418672492347, -187500.02235174447, -187500.02235174447, -0.184, -0.756, -0.644, 192.0, 0.0, 0.0, 0.0, 0.0, 0.0, 0.0, 0.0, 0.0, 0.0, 1.6776152386948645E9, 0.0, 2023-02-28 12:13:58.694
67.0, 25480.340478460846, -4419.766893359053, 15319.282152567168, -3128.461912687053, 14773.765477390943, 7467.583712051358, -187500.02235174447, -187500.02235174447, -0.184, -0.756, -0.644, 192.0, 0.0, 0.0, 0.0, 0.0, 0.0, 0.0, 0.0, 0.0, 0.0, 1.67761523869885E9, 0.0, 2023-02-28 12:13:58.698
68.0, 25453.33957115884, -4421.2644602375585, 14978.350994390368, -3131.1217702772346, 14595.465611870959, 7399.120318784752, -187500.02235174447, -187500.02235174447, -0.184, -0.756, -0.644, 192.0, 0.0, 0.0, 0.0, 0.0, 0.0, 0.0, 0.0, 0.0, 0.0, 1.6776152387018542E9, 0.0, 2023-02-28 12:13:58.701
69.0, 25582.085619221405, -4424.103131783382, 15671.210369015977, -3142.0294215714243, 14954.76990399002, 7722.661819775322, -187500.02235174447, -187500.02235174447, -0.184, -0.756, -0.644, 192.0, 0.0, 0.0, 0.0, 0.0, 0.0, 0.0, 0.0, 0.0, 0.0, 1.677615238705884E9, 0.0, 2023-02-28 12:13:58.705
70.0, 25630.767718645064, -4423.3208207274465, 16114.288999353528, -3139.8613023592598, 15189.060889370548, 7825.658658225377, -187500.02235174447, -187500.02235174447, -0.184, -0.756, -0.644, 192.0, 0.0, 0.0, 0.0, 0.0, 0.0, 0.0, 0.0, 0.0, 0.0, 1.6776152387099168E9, 0.0, 2023-02-28 12:13:58.709
71.0, 25514.404537010734, -4418.984582303117, 15461.238081602824, -3128.484264431508, 14859.305603421404, 7493.444680386148, -187500.02235174447, -187500.02235174447, -0.184, -0.756, -0.644, 192.0, 0.0, 0.0, 0.0, 0.0, 0.0, 0.0, 0.0, 0.0, 0.0, 1.6776152387148664E9, 0.0, 2023-02-28 12:13:58.714
72.0, 25448.37748388976, -4415.944745057195, 14943.951659673652, -3126.159683008156, 14590.436469368515, 7357.5460740978815, -187500.02235174447, -187500.02235174447, -0.184, -0.756, -0.644, 192.0, 0.0, 0.0, 0.0, 0.0, 0.0, 0.0, 0.0, 0.0, 0.0, 1.6776152387189145E9, 0.0, 2023-02-28 12:13:58.718
73.0, 25556.828147986907, -4420.996239304094, 15516.424538662975, -3137.6484796581844, 14879.936263553653, 7657.730002132655, -187500.02235174447, -187500.02235174447, -0.184, -0.756, -0.644, 192.0, 0.0, 0.0, 0.0, 0.0, 0.0, 0.0, 0.0, 0.0, 0.0, 1.677615238722922E9, 0.0, 2023-02-28 12:13:58.722
74.0, 25647.084492097438, -4418.559899158466, 16122.425034335261, -3140.129523292723, 15192.905389416861, 7845.328193346048, -187500.02235174447, -187500.02235174447, -0.18, -0.754, -0.648, 192.0, 250.0, 96.0, 232.0, 112.0, 235.0, 192.0, 0.0, 0.0, 0.0, 1.677615238726972E9, 0.0, 2023-02-28 12:13:58.726
75.0, 25557.833976487396, -4412.703742111175, 15610.905362475558, -3128.2160434980447, 14935.927383414197, 7564.567931242935, -187500.02235174447, -187500.02235174447, -0.18, -0.754, -0.648, 192.0, 0.0, 0.0, 0.0, 0.0, 0.0, 0.0, 0.0, 0.0, 0.0, 1.677615238729962E9, 0.0, 2023-02-28 12:13:58.729
76.0, 25459.955687517606, -4416.704704368675, 14952.691191755677, -3125.824406841327, 14596.024405482342, 7344.112675680241, -187500.02235174447, -187500.02235174447, -0.18, -0.754, -0.648, 192.0, 0.0, 0.0, 0.0, 0.0, 0.0, 0.0, 0.0, 0.0, 0.0, 1.67761523873391E9, 0.0, 2023-02-28 12:13:58.733
77.0, 25544.75820598104, -4421.622088148843, 15363.315089144122, -3136.843816857793, 14798.419451525147, 7585.556219286468, -187500.02235174447, -187500.02235174447, -0.18, -0.754, -0.648, 192.0, 0.0, 0.0, 0.0, 0.0, 0.0, 0.0, 0.0, 0.0, 0.0, 1.6776152387378623E9, 0.0, 2023-02-28 12:13:58.737
78.0, 25654.952306145708, -4422.426750949234, 16089.076231607944, -3141.5823866823184, 15175.806304908552, 7838.399152564902, -187500.02235174447, -187500.02235174447, -0.18, -0.754, -0.648, 192.0, 0.0, 0.0, 0.0, 0.0, 0.0, 0.0, 0.0, 0.0, 0.0, 1.6776152387419553E9, 0.0, 2023-02-28 12:13:58.741
79.0, 25570.194491171183, -4420.146873014793, 15757.175178191088, -3131.3229359773322, 15010.649265128288, 7626.996353506608, -187500.02235174447, -187500.02235174447, -0.18, -0.754, -0.648, 192.0, 0.0, 0.0, 0.0, 0.0, 0.0, 0.0, 0.0, 0.0, 0.0, 1.6776152387470284E9, 0.0, 2023-02-28 12:13:58.747
80.0, 25455.775911304467, -4414.737750856609, 14998.10993648886, -3123.2539562289667, 14620.99130403892, 7359.669489821135, -187500.02235174447, -187500.02235174447, -0.18, -0.754, -0.648, 192.0, 0.0, 0.0, 0.0, 0.0, 0.0, 0.0, 0.0, 0.0, 0.0, 1.6776152387508895E9, 0.0, 2023-02-28 12:13:58.750
81.0, 25527.189734839172, -4417.844643335896, 15223.81785199855, -3131.300584232877, 14731.386569903681, 7537.879948363298, -187500.02235174447, -187500.02235174447, -0.18, -0.754, -0.648, 192.0, 0.0, 0.0, 0.0, 0.0, 0.0, 0.0, 0.0, 0.0, 0.0, 1.677615238754924E9, 0.0, 2023-02-28 12:13:58.754
82.0, 25660.048503881517, -4420.526852670533, 16016.880097017302, -3139.5707296813407, 15141.652839380842, 7840.187292121326, -187500.02235174447, -187500.02235174447, -0.18, -0.754, -0.648, 192.0, 0.0, 0.0, 0.0, 0.0, 0.0, 0.0, 0.0, 0.0, 0.0, 1.6776152387589724E9, 0.0, 2023-02-28 12:13:58.758
83.0, 25646.056311852495, -4420.25863173707, 15889.698671066604, -3133.4910551894973, 15079.067954905982, 7693.470441516691, -187500.02235174447, -187500.02235174447, -0.18, -0.754, -0.648, 192.0, 0.0, 0.0, 0.0, 0.0, 0.0, 0.0, 0.0, 0.0, 0.0, 1.6776152387620213E9, 0.0, 2023-02-28 12:13:58.762
84.0, 25497.551321691433, -4423.566689916455, 15089.617978288887, -3128.037229542402, 14661.492664991936, 7358.797771787378, -187500.02235174447, -187500.02235174447, -0.182, -0.752, -0.646, 192.0, 250.0, 80.0, 232.0, 128.0, 235.0, 208.0, 0.0, 0.0, 0.0, 1.6776152387659867E9, 0.0, 2023-02-28 12:13:58.765
85.0, 25511.185885809173, -4426.338306228913, 15114.406062889822, -3136.2179680130444, 14664.018412115385, 7460.654671270213, -187500.02235174447, -187500.02235174447, -0.182, -0.752, -0.646, 192.0, 0.0, 0.0, 0.0, 0.0, 0.0, 0.0, 0.0, 0.0, 0.0, 1.6776152387709737E9, 0.0, 2023-02-28 12:13:58.770
86.0, 25645.899849641308, -4431.725076642642, 15922.734549371547, -3145.940976851103, 15077.436277560744, 7801.809346891564, -187500.02235174447, -187500.02235174447, -0.182, -0.752, -0.646, 192.0, 0.0, 0.0, 0.0, 0.0, 0.0, 0.0, 0.0, 0.0, 0.0, 1.6776152387749243E9, 0.0, 2023-02-28 12:13:58.774
87.0, 25617.647244649797, -4432.954422587683, 16003.424346855207, -3139.3472122367875, 15120.485737381667, 7747.874587520909, -187500.02235174447, -187500.02235174447, -0.182, -0.752, -0.646, 192.0, 0.0, 0.0, 0.0, 0.0, 0.0, 0.0, 0.0, 0.0, 0.0, 1.677615238778918E9, 0.0, 2023-02-28 12:13:58.778
88.0, 25474.484321413558, -4428.461721952167, 15208.328093091022, -3128.6630783871506, 14711.895848738654, 7408.061016566875, -187500.02235174447, -187500.02235174447, -0.182, -0.752, -0.646, 192.0, 0.0, 0.0, 0.0, 0.0, 0.0, 0.0, 0.0, 0.0, 0.0, 1.6776152387830112E9, 0.0, 2023-02-28 12:13:58.783
89.0, 25477.94884180413, -4430.316916741957, 15027.368369980857, -3134.0274970564246, 14609.971894022454, 7413.760711402979, -187500.02235174447, -187500.02235174447, -0.182, -0.752, -0.646, 192.0, 0.0, 0.0, 0.0, 0.0, 0.0, 0.0, 0.0, 0.0, 0.0, 1.677615238785977E9, 0.0, 2023-02-28 12:13:58.785
90.0, 25617.02139580505, -4434.072009810449, 15794.480239686996, -3145.6727559176393, 14998.422860911234, 7752.680212578799, -187500.02235174447, -187500.02235174447, -0.182, -0.752, -0.646, 192.0, 0.0, 0.0, 0.0, 0.0, 0.0, 0.0, 0.0, 0.0, 0.0, 1.6776152387899458E9, 0.0, 2023-02-28 12:13:58.789
91.0, 25646.145718830314, -4432.485035954122, 16084.717641439158, -3143.52698844993, 15154.90742384284, 7778.9435123137855, -187500.02235174447, -187500.02235174447, -0.182, -0.752, -0.646, 192.0, 0.0, 0.0, 0.0, 0.0, 0.0, 0.0, 0.0, 0.0, 0.0, 1.6776152387959824E9, 0.0, 2023-02-28 12:13:58.795
92.0, 25551.620191528822, -4429.35579173038, 15347.624164536497, -3133.558110422863, 14786.461268241557, 7422.7014091851015, -187500.02235174447, -187500.02235174447, -0.182, -0.752, -0.646, 192.0, 0.0, 0.0, 0.0, 0.0, 0.0, 0.0, 0.0, 0.0, 0.0, 1.6776152387989635E9, 0.0, 2023-02-28 12:13:58.798
93.0, 25486.554263419424, -4429.3110882414685, 14970.885511742295, -3134.3180697343437, 14590.056489712775, 7352.271062406428, -187500.02235174447, -187500.02235174447, -0.182, -0.752, -0.646, 192.0, 0.0, 0.0, 0.0, 0.0, 0.0, 0.0, 0.0, 0.0, 0.0, 1.677615238803016E9, 0.0, 2023-02-28 12:13:58.803
94.0, 25596.234273461614, -4435.614280177865, 15649.417418172054, -3145.33747975081, 14934.00513339104, 7693.738662450155, -187500.02235174447, -187500.02235174447, -0.18, -0.752, -0.646, 192.0, 250.0, 96.0, 232.0, 128.0, 235.0, 208.0, 0.0, 0.0, 0.0, 1.6776152388069985E9, 0.0, 2023-02-28 12:13:58.806
95.0, 25659.71322771469, -4435.323707499946, 16125.800147748012, -3144.9575000950695, 15186.28927305809, 7813.141681330405, -187500.02235174447, -187500.02235174447, -0.18, -0.752, -0.646, 192.0, 0.0, 0.0, 0.0, 0.0, 0.0, 0.0, 0.0, 0.0, 0.0, 1.6776152388099911E9, 0.0, 2023-02-28 12:13:58.809
96.0, 25556.269354375527, -4429.914585341762, 15497.157334942502, -3133.2898894893992, 14864.357097668302, 7492.930590263676, -187500.02235174447, -187500.02235174447, -0.18, -0.752, -0.646, 192.0, 0.0, 0.0, 0.0, 0.0, 0.0, 0.0, 0.0, 0.0, 0.0, 1.677615238814014E9, 0.0, 2023-02-28 12:13:58.814
97.0, 25502.736926405065, -4426.181844017726, 14951.841825466374, -3131.5688051663406, 14576.8913122286, 7332.02038192992, -187500.02235174447, -187500.02235174447, -0.18, -0.752, -0.646, 192.0, 0.0, 0.0, 0.0, 0.0, 0.0, 0.0, 0.0, 0.0, 0.0, 1.677615238818048E9, 0.0, 2023-02-28 12:13:58.818
98.0, 25614.227427748137, -4425.734809128619, 15493.78222152975, -3141.470627960042, 14855.46110337509, 7608.153832930784, -187500.02235174447, -187500.02235174447, -0.18, -0.752, -0.646, 192.0, 0.0, 0.0, 0.0, 0.0, 0.0, 0.0, 0.0, 0.0, 0.0, 1.6776152388219764E9, 0.0, 2023-02-28 12:13:58.821
99.0, 25700.952196234728, -4422.493806182601, 16125.129595414353, -3142.141180293701, 15181.774220678119, 7819.176652333338, -187500.02235174447, -187500.02235174447, -0.18, -0.752, -0.646, 192.0, 0.0, 0.0, 0.0, 0.0, 0.0, 0.0, 0.0, 0.0, 0.0, 1.6776152388260798E9, 0.0, 2023-02-28 12:13:58.826
100.0, 25631.907657612286, -4416.5705939019435, 15642.801301813282, -3130.071238287835, 14939.77188346051, 7556.253082305561, -187500.02235174447, -187500.02235174447, -0.18, -0.752, -0.646, 192.0, 0.0, 0.0, 0.0, 0.0, 0.0, 0.0, 0.0, 0.0, 0.0, 1.6776152388310013E9, 0.0, 2023-02-28 12:13:58.831
101.0, 25544.601743769854, -4414.067198522949, 14962.727125016108, -3126.5843661528074, 14594.213914181462, 7309.489823518971, -187500.02235174447, -187500.02235174447, -0.18, -0.752, -0.646, 192.0, 0.0, 0.0, 0.0, 0.0, 0.0, 0.0, 0.0, 0.0, 0.0, 1.6776152388350303E9, 0.0, 2023-02-28 12:13:58.835
102.0, 25612.126363769337, -4414.625992134332, 15341.522138300197, -3137.0449825578908, 14785.008404851962, 7538.036410574486, -187500.02235174447, -187500.02235174447, -0.18, -0.752, -0.646, 192.0, 0.0, 0.0, 0.0, 0.0, 0.0, 0.0, 0.0, 0.0, 0.0, 1.6776152388380268E9, 0.0, 2023-02-28 12:13:58.838
103.0, 25692.637347297354, -4417.844643335896, 16082.929501882732, -3142.1858837826117, 15166.642089681876, 7817.16499533236, -187500.02235174447, -187500.02235174447, -0.18, -0.752, -0.646, 192.0, 0.0, 0.0, 0.0, 0.0, 0.0, 0.0, 0.0, 0.0, 0.0, 1.677615238842075E9, 0.0, 2023-02-28 12:13:58.842
104.0, 25582.666764577243, -4418.738713114109, 15784.086678515278, -3131.725267377528, 15011.297465717491, 7617.2286411796385, -187500.02235174447, -187500.02235174447, -0.18, -0.75, -0.64, 192.0, 250.0, 96.0, 232.0, 144.0, 236.0, 0.0, 0.0, 0.0, 0.0, 1.6776152388460248E9, 0.0, 2023-02-28 12:13:58.846
105.0, 25470.282193455958, -4413.150777000282, 15015.58900065291, -3124.3938951961873, 14615.828051069744, 7314.027227643398, -187500.02235174447, -187500.02235174447, -0.18, -0.75, -0.64, 192.0, 0.0, 0.0, 0.0, 0.0, 0.0, 0.0, 0.0, 0.0, 0.0, 1.6776152388500805E9, 0.0, 2023-02-28 12:13:58.850
106.0, 25552.20133688466, -4413.843681078396, 15204.751813978173, -3132.373467966732, 14707.447851592047, 7469.975348708075, -187500.02235174447, -187500.02235174447, -0.18, -0.75, -0.64, 192.0, 0.0, 0.0, 0.0, 0.0, 0.0, 0.0, 0.0, 0.0, 0.0, 1.6776152388540545E9, 0.0, 2023-02-28 12:13:58.854
107.0, 25749.813109614028, -4413.463701422656, 16005.614817811826, -3139.9954128259915, 15122.028007749082, 7783.257398993659, -187500.02235174447, -187500.02235174447, -0.18, -0.75, -0.64, 192.0, 0.0, 0.0, 0.0, 0.0, 0.0, 0.0, 0.0, 0.0, 0.0, 1.6776152388590531E9, 0.0, 2023-02-28 12:13:58.859
108.0, 25771.76252266914, -4418.135216013815, 15911.692787610626, -3134.5192354344413, 15074.329385081457, 7656.120676531873, -187500.02235174447, -187500.02235174447, -0.18, -0.75, -0.64, 192.0, 0.0, 0.0, 0.0, 0.0, 0.0, 0.0, 0.0, 0.0, 0.0, 1.677615238863027E9, 0.0, 2023-02-28 12:13:58.863
109.0, 25661.724884715666, -4424.170187016748, 15106.068862207994, -3129.423037698631, 14649.310964263794, 7320.196309113063, -187500.02235174447, -187500.02235174447, -0.18, -0.75, -0.64, 192.0, 0.0, 0.0, 0.0, 0.0, 0.0, 0.0, 0.0, 0.0, 0.0, 1.677615238866088E9, 0.0, 2023-02-28 12:13:58.866
110.0, 25683.51783555959, -4428.30525974098, 15095.27296963608, -3136.262671501955, 14635.47523444596, 7402.406025219682, -187500.02235174447, -187500.02235174447, -0.18, -0.75, -0.64, 192.0, 0.0, 0.0, 0.0, 0.0, 0.0, 0.0, 0.0, 0.0, 0.0, 1.6776152388700776E9, 0.0, 2023-02-28 12:13:58.870
111.0, 25739.86658333142, -4425.958326573173, 15898.90758978219, -3141.694145404595, 15049.384838269334, 7757.351727169958, -187500.02235174447, -187500.02235174447, -0.18, -0.75, -0.64, 192.0, 0.0, 0.0, 0.0, 0.0, 0.0, 0.0, 0.0, 0.0, 0.0, 1.677615238874072E9, 0.0, 2023-02-28 12:13:58.874
112.0, 25744.38163571139, -4424.2595939945695, 16015.78486153899, -3136.821465113338, 15113.064958222505, 7719.800796485043, -187500.02235174447, -187500.02235174447, -0.18, -0.75, -0.64, 192.0, 0.0, 0.0, 0.0, 0.0, 0.0, 0.0, 0.0, 0.0, 0.0, 1.677615238878114E9, 0.0, 2023-02-28 12:13:58.878
113.0, 25619.368328972858, -4431.322745242446, 15225.427177599333, -3130.630031899218, 14704.117441668206, 7354.595643829781, -187500.02235174447, -187500.02235174447, -0.18, -0.75, -0.64, 192.0, 0.0, 0.0, 0.0, 0.0, 0.0, 0.0, 0.0, 0.0, 0.0, 1.677615238882072E9, 0.0, 2023-02-28 12:13:58.882
114.0, 25626.006797076083, -4425.8465678508965, 15005.709529603664, -3132.7757993669275, 14583.529780331824, 7342.302184379361, -187500.02235174447, -187500.02235174447, -0.176, -0.742, -0.644, 192.0, 250.0, 128.0, 232.0, 208.0, 235.0, 224.0, 0.0, 0.0, 0.0, 1.677615238886139E9, 0.0, 2023-02-28 12:13:58.886
115.0, 25762.91123186484, -4431.054524308983, 15761.958451504524, -3144.1528372946786, 14961.34131685988, 7687.23430481366, -187500.02235174447, -187500.02235174447, -0.176, -0.742, -0.644, 192.0, 0.0, 0.0, 0.0, 0.0, 0.0, 0.0, 0.0, 0.0, 0.0, 1.6776152388910751E9, 0.0, 2023-02-28 12:13:58.891
116.0, 25925.631931499476, -4450.455838496189, 16088.22686531864, -3145.7621628954607, 15117.75882455812, 7739.3809246278915, -187500.02235174447, -187500.02235174447, -0.176, -0.742, -0.644, 192.0, 0.0, 0.0, 0.0, 0.0, 0.0, 0.0, 0.0, 0.0, 0.0, 1.6776152388942027E9, 0.0, 2023-02-28 12:13:58.894
117.0, 25842.88577352593, -4454.635614709332, 15364.790304278173, -3136.530892435419, 14740.953116530553, 7403.031874064431, -187500.02235174447, -187500.02235174447, -0.176, -0.742, -0.644, 192.0, 0.0, 0.0, 0.0, 0.0, 0.0, 0.0, 0.0, 0.0, 0.0, 1.6776152388981514E9, 0.0, 2023-02-28 12:13:58.898
118.0, 25652.94064914473, -4436.865977867363, 14952.512377800034, -3133.2004825115782, 14525.169375559019, 7320.241012601974, -187500.02235174447, -187500.02235174447, -0.176, -0.742, -0.644, 192.0, 0.0, 0.0, 0.0, 0.0, 0.0, 0.0, 0.0, 0.0, 0.0, 1.6776152389021025E9, 0.0, 2023-02-28 12:13:58.902
119.0, 25571.602651071866, -4419.5433759145, 15610.860658986649, -3141.1577035376677, 14863.261862189993, 7636.182920477739, -187500.02235174447, -187500.02235174447, -0.176, -0.742, -0.644, 192.0, 0.0, 0.0, 0.0, 0.0, 0.0, 0.0, 0.0, 0.0, 0.0, 1.6776152389060664E9, 0.0, 2023-02-28 12:13:58.906
120.0, 25652.49361425562, -4416.838814835407, 16119.116976155876, -3142.789380882905, 15126.028970006582, 7765.9124452963415, -187500.02235174447, -187500.02235174447, -0.176, -0.742, -0.644, 192.0, 0.0, 0.0, 0.0, 0.0, 0.0, 0.0, 0.0, 0.0, 0.0, 1.6776152389100983E9, 0.0, 2023-02-28 12:13:58.910
121.0, 25685.574196049478, -4415.117730512349, 15510.076643237668, -3132.3511162222762, 14802.35335854928, 7451.579863021358, -187500.02235174447, -187500.02235174447, -0.176, -0.742, -0.644, 192.0, 0.0, 0.0, 0.0, 0.0, 0.0, 0.0, 0.0, 0.0, 0.0, 1.6776152389141316E9, 0.0, 2023-02-28 12:13:58.914
122.0, 25598.804724073976, -4412.904907811273, 14935.726217714098, -3130.42886619912, 14501.610636903124, 7277.303311503329, -187500.02235174447, -187500.02235174447, -0.176, -0.742, -0.644, 192.0, 0.0, 0.0, 0.0, 0.0, 0.0, 0.0, 0.0, 0.0, 0.0, 1.6776152389191E9, 0.0, 2023-02-28 12:13:58.919
123.0, 25653.94647764522, -4424.572518416943, 15453.3479158101, -3140.911834348659, 14755.101770770762, 7560.92459689672, -187500.02235174447, -187500.02235174447, -0.176, -0.742, -0.644, 192.0, 0.0, 0.0, 0.0, 0.0, 0.0, 0.0, 0.0, 0.0, 0.0, 1.6776152389221258E9, 0.0, 2023-02-28 12:13:58.922
124.0, 25770.890804635383, -4424.237242250114, 16111.427976063249, -3144.465761717053, 15083.381841585857, 7775.791916345587, -187500.02235174447, -187500.02235174447, -0.176, -0.742, -0.644, 192.0, 0.0, 0.0, 0.0, 0.0, 0.0, 0.0, 0.0, 0.0, 0.0, 1.6776152389261484E9, 0.0, 2023-02-28 12:13:58.926
125.0, 25644.69285544072, -4411.429692677223, 15653.977174040936, -3132.4181714556426, 14849.582594583344, 7508.196831726651, -187500.02235174447, -187500.02235174447, -0.18, -0.746, -0.644, 192.0, 250.0, 96.0, 232.0, 176.0, 235.0, 224.0, 0.0, 0.0, 0.0, 1.6776152389302254E9, 0.0, 2023-02-28 12:13:58.930
126.0, 25618.943645828207, -4417.822291591441, 14953.741723745075, -3130.5182731769414, 14478.141305225052, 7262.215883995997, -187500.02235174447, -187500.02235174447, -0.18, -0.746, -0.644, 192.0, 0.0, 0.0, 0.0, 0.0, 0.0, 0.0, 0.0, 0.0, 0.0, 1.677615238934142E9, 0.0, 2023-02-28 12:13:58.934
127.0, 25638.25555303759, -4410.915602554751, 15300.082004080059, -3136.396781968687, 14654.541272466335, 7488.415537883704, -187500.02235174447, -187500.02235174447, -0.18, -0.746, -0.644, 192.0, 0.0, 0.0, 0.0, 0.0, 0.0, 0.0, 0.0, 0.0, 0.0, 1.6776152389381588E9, 0.0, 2023-02-28 12:13:58.938
128.0, 25686.714135016697, -4401.6619803502535, 16054.721600380135, -3138.6990116475836, 15046.389704512323, 7766.91827379683, -187500.02235174447, -187500.02235174447, -0.18, -0.746, -0.644, 192.0, 0.0, 0.0, 0.0, 0.0, 0.0, 0.0, 0.0, 0.0, 0.0, 1.6776152389421537E9, 0.0, 2023-02-28 12:13:58.942
129.0, 25668.69862898572, -4404.232430962615, 15788.579379150795, -3130.1829970101116, 14896.923589339685, 7580.795297717488, -187500.02235174447, -187500.02235174447, -0.18, -0.746, -0.644, 192.0, 0.0, 0.0, 0.0, 0.0, 0.0, 0.0, 0.0, 0.0, 0.0, 1.6776152389471688E9, 0.0, 2023-02-28 12:13:58.947
130.0, 25527.70382496164, -4399.426805904724, 15005.530715648023, -3122.918680062137, 14487.707851851923, 7276.588055680759, -187500.02235174447, -187500.02235174447, -0.18, -0.746, -0.644, 192.0, 0.0, 0.0, 0.0, 0.0, 0.0, 0.0, 0.0, 0.0, 0.0, 1.6776152389501169E9, 0.0, 2023-02-28 12:13:58.950
131.0, 25605.77846834403, -4415.229489234625, 15166.597386192965, -3134.6980493900837, 14553.243166594884, 7423.193147563118, -187500.02235174447, -187500.02235174447, -0.18, -0.746, -0.644, 192.0, 0.0, 0.0, 0.0, 0.0, 0.0, 0.0, 0.0, 0.0, 0.0, 1.6776152389541335E9, 0.0, 2023-02-28 12:13:58.954
132.0, 25426.36101560128, -4407.585192630911, 15969.069715627398, -3138.81077036986, 14983.491895615089, 7742.711334551733, -187500.02235174447, -187500.02235174447, -0.18, -0.746, -0.644, 192.0, 0.0, 0.0, 0.0, 0.0, 0.0, 0.0, 0.0, 0.0, 0.0, 1.6776152389583097E9, 0.0, 2023-02-28 12:13:58.958
133.0, 25323.8782672737, -4380.159602184249, 15907.691825353126, -3128.037229542402, 14955.328697601402, 7625.945821517208, -187500.02235174447, -187500.02235174447, -0.18, -0.746, -0.644, 192.0, 0.0, 0.0, 0.0, 0.0, 0.0, 0.0, 0.0, 0.0, 0.0, 1.6776152389621756E9, 0.0, 2023-02-28 12:13:58.962
134.0, 25231.118527784172, -4373.543485825478, 15094.311844624503, -3117.688371859595, 14533.908907641044, 7286.199305796541, -187500.02235174447, -187500.02235174447, -0.18, -0.746, -0.644, 192.0, 0.0, 0.0, 0.0, 0.0, 0.0, 0.0, 0.0, 0.0, 0.0, 1.6776152389661536E9, 0.0, 2023-02-28 12:13:58.966
135.0, 25098.125648275098, -4369.184895656693, 15046.5014632346, -3123.2539562289667, 14502.884686337076, 7362.016422988942, -187500.02235174447, -187500.02235174447, -0.182, -0.744, -0.652, 192.0, 250.0, 80.0, 232.0, 192.0, 235.0, 160.0, 0.0, 0.0, 0.0, 1.67761523897023E9, 0.0, 2023-02-28 12:13:58.970
136.0, 25212.99126303092, -4373.208209658648, 15849.242013602498, -3132.328764477821, 14909.485269723567, 7714.682247004777, -187500.02235174447, -187500.02235174447, -0.182, -0.744, -0.652, 192.0, 0.0, 0.0, 0.0, 0.0, 0.0, 0.0, 0.0, 0.0, 0.0, 1.6776152389751763E9, 0.0, 2023-02-28 12:13:58.975
137.0, 25232.549039429312, -4371.978863713606, 16000.965654965123, -3126.517310919441, 14985.928235760717, 7684.1497640788275, -187500.02235174447, -187500.02235174447, -0.182, -0.744, -0.652, 192.0, 0.0, 0.0, 0.0, 0.0, 0.0, 0.0, 0.0, 0.0, 0.0, 1.6776152389782884E9, 0.0, 2023-02-28 12:13:58.978
138.0, 25157.35777108166, -4389.256762177559, 15218.20756414027, -3122.248127728478, 14576.55603606177, 7321.000971913454, -187500.02235174447, -187500.02235174447, -0.182, -0.744, -0.652, 192.0, 0.0, 0.0, 0.0, 0.0, 0.0, 0.0, 0.0, 0.0, 0.0, 1.6776152389821784E9, 0.0, 2023-02-28 12:13:58.982
139.0, 25007.53402799774, -4387.20040168767, 14966.258700640048, -3124.3715434517317, 14444.14430190853, 7305.555916494837, -187500.02235174447, -187500.02235174447, -0.182, -0.744, -0.652, 192.0, 0.0, 0.0, 0.0, 0.0, 0.0, 0.0, 0.0, 0.0, 0.0, 1.6776152389861948E9, 0.0, 2023-02-28 12:13:58.986
140.0, 24895.529436532193, -4368.804916000952, 15707.06256712229, -3130.361810965754, 14830.002466440495, 7650.286871229037, -187500.02235174447, -187500.02235174447, -0.182, -0.744, -0.652, 192.0, 0.0, 0.0, 0.0, 0.0, 0.0, 0.0, 0.0, 0.0, 0.0, 1.677615238990166E9, 0.0, 2023-02-28 12:13:58.990
141.0, 24809.117592467977, -4358.098430406861, 16060.488350449605, -3126.6290696417177, 15022.652151900787, 7704.825127699987, -187500.02235174447, -187500.02235174447, -0.182, -0.744, -0.652, 192.0, 0.0, 0.0, 0.0, 0.0, 0.0, 0.0, 0.0, 0.0, 0.0, 1.677615238994224E9, 0.0, 2023-02-28 12:13:58.994
142.0, 24706.254864484654, -4357.33847109538, 15354.396743106456, -3117.8001305818716, 14661.559720225301, 7356.763763041946, -187500.02235174447, -187500.02235174447, -0.182, -0.744, -0.652, 192.0, 0.0, 0.0, 0.0, 0.0, 0.0, 0.0, 0.0, 0.0, 0.0, 1.6776152389982047E9, 0.0, 2023-02-28 12:13:58.998
143.0, 24694.40843992334, -4369.430764845702, 14920.214107062115, -3121.979906795014, 14430.085054646142, 7248.089581500242, -187500.02235174447, -187500.02235174447, -0.182, -0.744, -0.652, 192.0, 0.0, 0.0, 0.0, 0.0, 0.0, 0.0, 0.0, 0.0, 0.0, 1.6776152390012448E9, 0.0, 2023-02-28 12:13:59.001
