%OpenBCI Raw EEG Data
%Number of channels = 8
%Sample Rate = 250 Hz
%Board = OpenBCI_GUI$BoardCytonSerial
Sample Index, EXG Channel 0, EXG Channel 1, EXG Channel 2, EXG Channel 3, EXG Channel 4, EXG Channel 5, EXG Channel 6, EXG Channel 7, Accel Channel 0, Accel Channel 1, Accel Channel 2, Other, Other, Other, Other, Other, Other, Other, Analog Channel 0, Analog Channel 1, Analog Channel 2, Timestamp, Other, Timestamp (Formatted)
100.0, 27111.50373357579, -4533.13494123637, 16463.5350064677, -3453.433925322762, 15277.931425324849, 7113.465024645928, -187500.02235174447, -187500.02235174447, -0.168, -0.768, -0.64, 192.0, 250.0, 192.0, 232.0, 0.0, 236.0, 0.0, 0.0, 0.0, 0.0, 1.6776157690277085E9, 0.0, 2023-02-28 12:22:49.027
101.0, 27077.283212814717, -4527.3905429113565, 16178.818485596, -3448.0024514201227, 15140.110569013426, 6985.3448254281075, -187500.02235174447, -187500.02235174447, -0.168, -0.768, -0.64, 192.0, 0.0, 0.0, 0.0, 0.0, 0.0, 0.0, 0.0, 0.0, 0.0, 1.6776157690277436E9, 0.0, 2023-02-28 12:22:49.027
102.0, 27071.15883483396, -4526.965859766706, 16083.868275149856, -3450.3270328434746, 15088.723908510676, 6967.865761264058, -187500.02235174447, -187500.02235174447, -0.168, -0.768, -0.64, 192.0, 0.0, 0.0, 0.0, 0.0, 0.0, 0.0, 0.0, 0.0, 0.0, 1.6776157690277598E9, 0.0, 2023-02-28 12:22:49.027
103.0, 27110.006166697287, -4529.402199912333, 16355.03963888164, -3455.065602668, 15221.96265720876, 7099.0257977278, -187500.02235174447, -187500.02235174447, -0.168, -0.768, -0.64, 192.0, 0.0, 0.0, 0.0, 0.0, 0.0, 0.0, 0.0, 0.0, 0.0, 1.6776157690277755E9, 0.0, 2023-02-28 12:22:49.027
0.0, 0.0, 0.0, 0.0, 0.0, 0.0, 0.0, 0.0, 0.0, -0.168, -0.768, -0.64, 192.0, 0.0, 0.0, 0.0, 0.0, 0.0, 0.0, 0.0, 0.0, 0.0, 1.6776157691367488E9, 0.0, 2023-02-28 12:22:49.136
1.0, 26975.068685420596, -4407.406378675268, 16174.012860538109, -3387.250409990598, 14929.177156588694, 6885.499582946251, -187500.02235174447, -187500.02235174447, -0.176, -0.776, -0.628, 192.0, 250.0, 128.0, 231.0, 192.0, 236.0, 96.0, 0.0, 0.0, 0.0, 1.6776157691548245E9, 0.0, 2023-02-28 12:22:49.154
2.0, 27018.92280804191, -4406.780529830519, 16436.735264865787, -3389.217363502665, 15062.997050642616, 7007.741273372326, -187500.02235174447, -187500.02235174447, -0.176, -0.776, -0.628, 192.0, 0.0, 0.0, 0.0, 0.0, 0.0, 0.0, 0.0, 0.0, 0.0, 1.6776157691587512E9, 0.0, 2023-02-28 12:22:49.158
3.0, 27032.222095992816, -4406.82523331943, 16569.325812974672, -3388.4797559356402, 15130.968705531206, 7036.4632649973955, -187500.02235174447, -187500.02235174447, -0.176, -0.776, -0.628, 192.0, 0.0, 0.0, 0.0, 0.0, 0.0, 0.0, 0.0, 0.0, 0.0, 1.6776157691617572E9, 0.0, 2023-02-28 12:22:49.161
4.0, 26992.078362951084, -4409.306276953969, 16322.070815810064, -3385.708139623182, 15001.775622579531, 6922.022333386223, -187500.02235174447, -187500.02235174447, -0.176, -0.776, -0.628, 192.0, 0.0, 0.0, 0.0, 0.0, 0.0, 0.0, 0.0, 0.0, 0.0, 1.6776157691647317E9, 0.0, 2023-02-28 12:22:49.164
5.0, 26976.298031365637, -4411.608506632866, 16161.451180154227, -3386.378691956841, 14915.386130259769, 6882.303283489142, -187500.02235174447, -187500.02235174447, -0.176, -0.776, -0.628, 192.0, 0.0, 0.0, 0.0, 0.0, 0.0, 0.0, 0.0, 0.0, 0.0, 1.6776157691687832E9, 0.0, 2023-02-28 12:22:49.168
6.0, 27008.43983989237, -4411.697913610687, 16386.197970652338, -3389.217363502665, 15031.615201427365, 6992.944418542912, -187500.02235174447, -187500.02235174447, -0.176, -0.776, -0.628, 192.0, 0.0, 0.0, 0.0, 0.0, 0.0, 0.0, 0.0, 0.0, 0.0, 1.6776157691717632E9, 0.0, 2023-02-28 12:22:49.171
7.0, 27029.092851769074, -4411.094416510394, 16579.741725890843, -3389.7985088585033, 15133.852080565941, 7049.717849459393, -187500.02235174447, -187500.02235174447, -0.176, -0.776, -0.628, 192.0, 0.0, 0.0, 0.0, 0.0, 0.0, 0.0, 0.0, 0.0, 0.0, 1.6776157691757824E9, 0.0, 2023-02-28 12:22:49.175
8.0, 26990.916072239408, -4407.115805997349, 16374.530360046669, -3385.283456478531, 15032.531622950033, 6943.927042952424, -187500.02235174447, -187500.02235174447, -0.182, -0.776, -0.63, 192.0, 250.0, 80.0, 231.0, 192.0, 236.0, 80.0, 0.0, 0.0, 0.0, 1.6776157691808631E9, 0.0, 2023-02-28 12:22:49.180
9.0, 26956.91906892289, -4406.311143196957, 16160.28888944255, -3384.0988140224, 14922.00224661854, 6874.681338629883, -187500.02235174447, -187500.02235174447, -0.182, -0.776, -0.63, 192.0, 0.0, 0.0, 0.0, 0.0, 0.0, 0.0, 0.0, 0.0, 0.0, 1.677615769183854E9, 0.0, 2023-02-28 12:22:49.183
10.0, 26987.786828015665, -4407.898117053284, 16333.492557226726, -3387.6974448797046, 15008.615256382855, 6970.2573979207755, -187500.02235174447, -187500.02235174447, -0.182, -0.776, -0.63, 192.0, 0.0, 0.0, 0.0, 0.0, 0.0, 0.0, 0.0, 0.0, 0.0, 1.677615769187785E9, 0.0, 2023-02-28 12:22:49.187
11.0, 27021.49325865427, -4410.200346732181, 16574.98080432186, -3389.2397152471203, 15132.063941009515, 7052.511817516305, -187500.02235174447, -187500.02235174447, -0.182, -0.776, -0.63, 192.0, 0.0, 0.0, 0.0, 0.0, 0.0, 0.0, 0.0, 0.0, 0.0, 1.67761576919184E9, 0.0, 2023-02-28 12:22:49.191
12.0, 26993.553578085135, -4410.9379542992065, 16428.82274732861, -3386.333988467931, 15057.565576739977, 6964.937682740412, -187500.02235174447, -187500.02235174447, -0.182, -0.776, -0.63, 192.0, 0.0, 0.0, 0.0, 0.0, 0.0, 0.0, 0.0, 0.0, 0.0, 1.6776157691958065E9, 0.0, 2023-02-28 12:22:49.195
13.0, 26956.874365433978, -4413.441349678201, 16172.24707272614, -3385.708139623182, 14926.33848504287, 6871.440335683863, -187500.02235174447, -187500.02235174447, -0.182, -0.776, -0.63, 192.0, 0.0, 0.0, 0.0, 0.0, 0.0, 0.0, 0.0, 0.0, 0.0, 1.6776157691998763E9, 0.0, 2023-02-28 12:22:49.199
14.0, 26987.317441382103, -4415.184785745715, 16279.624853089435, -3389.7761571140477, 14979.312119401948, 6942.094199907089, -187500.02235174447, -187500.02235174447, -0.182, -0.776, -0.63, 192.0, 0.0, 0.0, 0.0, 0.0, 0.0, 0.0, 0.0, 0.0, 0.0, 1.677615769203814E9, 0.0, 2023-02-28 12:22:49.203
15.0, 27036.513630928235, -4413.843681078396, 16554.126626745063, -3391.4748896926512, 15119.569315858998, 7046.63330872456, -187500.02235174447, -187500.02235174447, -0.182, -0.776, -0.63, 192.0, 0.0, 0.0, 0.0, 0.0, 0.0, 0.0, 0.0, 0.0, 0.0, 1.6776157692078178E9, 0.0, 2023-02-28 12:22:49.207
16.0, 27026.142421500972, -4412.413169433256, 16477.571901985633, -3388.233886746632, 15082.286606107547, 6986.417709161963, -187500.02235174447, -187500.02235174447, -0.182, -0.776, -0.63, 192.0, 0.0, 0.0, 0.0, 0.0, 0.0, 0.0, 0.0, 0.0, 0.0, 1.677615769210809E9, 0.0, 2023-02-28 12:22:49.210
17.0, 26980.52251106769, -4412.569631644444, 16197.973930594198, -3386.5128024235732, 14939.078979382395, 6875.687167130372, -187500.02235174447, -187500.02235174447, -0.182, -0.776, -0.63, 192.0, 0.0, 0.0, 0.0, 0.0, 0.0, 0.0, 0.0, 0.0, 0.0, 1.6776157692147987E9, 0.0, 2023-02-28 12:22:49.214
18.0, 26980.9695459568, -4415.385951445813, 16234.317867078527, -3389.91026758078, 14954.635793523288, 6918.378999040008, -187500.02235174447, -187500.02235174447, -0.182, -0.774, -0.628, 192.0, 250.0, 80.0, 231.0, 208.0, 236.0, 96.0, 0.0, 0.0, 0.0, 1.6776157692198327E9, 0.0, 2023-02-28 12:22:49.219
19.0, 27019.682767353388, -4417.308201468969, 16524.55526883069, -3394.067692049467, 15100.235056905158, 7033.445779495929, -187500.02235174447, -187500.02235174447, -0.182, -0.774, -0.628, 192.0, 0.0, 0.0, 0.0, 0.0, 0.0, 0.0, 0.0, 0.0, 0.0, 1.67761576922382E9, 0.0, 2023-02-28 12:22:49.223
20.0, 27014.854790551042, -4416.34707645739, 16523.7506060303, -3392.0783867929445, 15102.246713906135, 7002.153337258499, -187500.02235174447, -187500.02235174447, -0.182, -0.774, -0.628, 192.0, 0.0, 0.0, 0.0, 0.0, 0.0, 0.0, 0.0, 0.0, 0.0, 1.6776157692278662E9, 0.0, 2023-02-28 12:22:49.227
21.0, 26970.508929551714, -4414.625992134332, 16235.167233367829, -3389.060901291478, 14957.96620344713, 6880.403385210441, -187500.02235174447, -187500.02235174447, -0.182, -0.774, -0.628, 192.0, 0.0, 0.0, 0.0, 0.0, 0.0, 0.0, 0.0, 0.0, 0.0, 1.677615769231906E9, 0.0, 2023-02-28 12:22:49.231
22.0, 26972.43117957487, -4413.7542741005755, 16197.415136982816, -3389.5079361805842, 14939.280145082492, 6895.066129573122, -187500.02235174447, -187500.02235174447, -0.182, -0.774, -0.628, 192.0, 0.0, 0.0, 0.0, 0.0, 0.0, 0.0, 0.0, 0.0, 0.0, 1.6776157692358892E9, 0.0, 2023-02-28 12:22:49.235
23.0, 27015.7265085848, -4415.92239331274, 16481.01407063175, -3392.257200748587, 15085.326443353468, 7017.7995583772135, -187500.02235174447, -187500.02235174447, -0.182, -0.774, -0.628, 192.0, 0.0, 0.0, 0.0, 0.0, 0.0, 0.0, 0.0, 0.0, 0.0, 1.6776157692388296E9, 0.0, 2023-02-28 12:22:49.238
24.0, 27022.20851447684, -4415.4530066791785, 16553.701943600412, -3390.893744336813, 15124.687865339265, 7017.643096166026, -187500.02235174447, -187500.02235174447, -0.182, -0.774, -0.628, 192.0, 0.0, 0.0, 0.0, 0.0, 0.0, 0.0, 0.0, 0.0, 0.0, 1.6776157692429187E9, 0.0, 2023-02-28 12:22:49.242
25.0, 26970.464226062802, -4415.050675278982, 16278.194341444296, -3388.233886746632, 14986.084697971904, 6894.7085016618375, -187500.02235174447, -187500.02235174447, -0.182, -0.774, -0.628, 192.0, 0.0, 0.0, 0.0, 0.0, 0.0, 0.0, 0.0, 0.0, 0.0, 1.6776157692478473E9, 0.0, 2023-02-28 12:22:49.247
26.0, 26949.967676397286, -4415.363599701357, 16171.889444814855, -3389.999674558601, 14931.814662434419, 6879.755184621237, -187500.02235174447, -187500.02235174447, -0.182, -0.774, -0.628, 192.0, 0.0, 0.0, 0.0, 0.0, 0.0, 0.0, 0.0, 0.0, 0.0, 1.677615769251891E9, 0.0, 2023-02-28 12:22:49.251
27.0, 27020.912113298433, -4413.418997933745, 16433.136634008486, -3392.1454420263103, 15064.114637865381, 7004.0532355372, -187500.02235174447, -187500.02235174447, -0.182, -0.774, -0.628, 192.0, 0.0, 0.0, 0.0, 0.0, 0.0, 0.0, 0.0, 0.0, 0.0, 1.6776157692559423E9, 0.0, 2023-02-28 12:22:49.255
28.0, 27049.432939223403, -4413.73192235612, 16574.57847292167, -3391.3631309703746, 15135.103778255438, 7036.1726923194765, -187500.02235174447, -187500.02235174447, -0.184, -0.776, -0.63, 192.0, 250.0, 64.0, 231.0, 192.0, 236.0, 80.0, 0.0, 0.0, 0.0, 1.67761576925992E9, 0.0, 2023-02-28 12:22:49.259
29.0, 26996.325194397592, -4412.882556066818, 16328.70928391329, -3387.0715960349557, 15010.179878494726, 6918.4237025289185, -187500.02235174447, -187500.02235174447, -0.184, -0.776, -0.63, 192.0, 0.0, 0.0, 0.0, 0.0, 0.0, 0.0, 0.0, 0.0, 0.0, 1.6776157692638512E9, 0.0, 2023-02-28 12:22:49.263
30.0, 26958.95307766832, -4410.848547321385, 16159.886558042355, -3387.0492442905006, 14922.516336741011, 6874.748393863249, -187500.02235174447, -187500.02235174447, -0.184, -0.776, -0.63, 192.0, 0.0, 0.0, 0.0, 0.0, 0.0, 0.0, 0.0, 0.0, 0.0, 1.6776157692670891E9, 0.0, 2023-02-28 12:22:49.267
31.0, 26994.06766820761, -4409.976829287628, 16380.207703138318, -3390.3349507254306, 15033.828024128441, 6985.300121939197, -187500.02235174447, -187500.02235174447, -0.184, -0.776, -0.63, 192.0, 0.0, 0.0, 0.0, 0.0, 0.0, 0.0, 0.0, 0.0, 0.0, 1.6776157692719104E9, 0.0, 2023-02-28 12:22:49.271
32.0, 27028.86933432452, -4408.903945553773, 16579.741725890843, -3389.709101880682, 15135.95314454474, 7046.141570346543, -187500.02235174447, -187500.02235174447, -0.184, -0.776, -0.63, 192.0, 0.0, 0.0, 0.0, 0.0, 0.0, 0.0, 0.0, 0.0, 0.0, 1.6776157692759483E9, 0.0, 2023-02-28 12:22:49.275
33.0, 26998.090982209564, -4408.4122071757565, 16380.654738027424, -3385.8869535788244, 15033.69391366171, 6941.021316173234, -187500.02235174447, -187500.02235174447, -0.184, -0.776, -0.63, 192.0, 0.0, 0.0, 0.0, 0.0, 0.0, 0.0, 0.0, 0.0, 0.0, 1.67761576928093E9, 0.0, 2023-02-28 12:22:49.280
34.0, 26964.42925505987, -4410.133291498815, 16160.959441776211, -3385.5963809009054, 14919.521202984, 6866.9476350483465, -187500.02235174447, -187500.02235174447, -0.184, -0.776, -0.63, 192.0, 0.0, 0.0, 0.0, 0.0, 0.0, 0.0, 0.0, 0.0, 0.0, 1.6776157692838857E9, 0.0, 2023-02-28 12:22:49.283
35.0, 26997.95687174283, -4409.976829287628, 16325.825908878554, -3388.7703286135593, 15002.35676793537, 6961.070830949644, -187500.02235174447, -187500.02235174447, -0.184, -0.776, -0.63, 192.0, 0.0, 0.0, 0.0, 0.0, 0.0, 0.0, 0.0, 0.0, 0.0, 1.6776157692878623E9, 0.0, 2023-02-28 12:22:49.287
36.0, 27032.043282037175, -4410.580326387922, 16572.23153975386, -3390.267895492065, 15130.18639447527, 7044.10756160111, -187500.02235174447, -187500.02235174447, -0.184, -0.776, -0.63, 192.0, 0.0, 0.0, 0.0, 0.0, 0.0, 0.0, 0.0, 0.0, 0.0, 1.6776157692918637E9, 0.0, 2023-02-28 12:22:49.291
37.0, 26999.476790365792, -4409.798015331986, 16433.136634008486, -3386.8480785904026, 15063.377030298358, 6959.841485004603, -187500.02235174447, -187500.02235174447, -0.184, -0.776, -0.63, 192.0, 0.0, 0.0, 0.0, 0.0, 0.0, 0.0, 0.0, 0.0, 0.0, 1.677615769294871E9, 0.0, 2023-02-28 12:22:49.294
38.0, 26965.14451088244, -4409.3509804428795, 16174.68341287177, -3384.456441933685, 14931.94877290115, 6868.914588560413, -187500.02235174447, -187500.02235174447, -0.182, -0.776, -0.628, 192.0, 250.0, 80.0, 231.0, 192.0, 236.0, 96.0, 0.0, 0.0, 0.0, 1.6776157692989707E9, 0.0, 2023-02-28 12:22:49.298
39.0, 27001.644909577957, -4409.798015331986, 16273.388716386406, -3386.937485568224, 14980.563817091444, 6938.3838103275075, -187500.02235174447, -187500.02235174447, -0.182, -0.776, -0.628, 192.0, 0.0, 0.0, 0.0, 0.0, 0.0, 0.0, 0.0, 0.0, 0.0, 1.6776157693119612E9, 0.0, 2023-02-28 12:22:49.311
40.0, 27043.7332443873, -4410.692085110198, 16550.527995887758, -3389.4408809472184, 15121.022179248594, 7041.090076099644, -187500.02235174447, -187500.02235174447, -0.182, -0.776, -0.628, 192.0, 0.0, 0.0, 0.0, 0.0, 0.0, 0.0, 0.0, 0.0, 0.0, 1.6776157693149436E9, 0.0, 2023-02-28 12:22:49.314
41.0, 27011.032642249185, -4410.714436854653, 16483.249245077284, -3386.6916163792157, 15088.254521877114, 6980.7627178147695, -187500.02235174447, -187500.02235174447, -0.182, -0.776, -0.628, 192.0, 0.0, 0.0, 0.0, 0.0, 0.0, 0.0, 0.0, 0.0, 0.0, 1.677615769318925E9, 0.0, 2023-02-28 12:22:49.318
42.0, 26970.643040018447, -4410.535622899011, 16202.086651573974, -3384.6576076337824, 14946.477406797101, 6869.316919960609, -187500.02235174447, -187500.02235174447, -0.182, -0.776, -0.628, 192.0, 0.0, 0.0, 0.0, 0.0, 0.0, 0.0, 0.0, 0.0, 0.0, 1.677615769321921E9, 0.0, 2023-02-28 12:22:49.321
43.0, 26974.264022620206, -4414.335419456413, 16230.138090865386, -3388.1221280243553, 14959.240252881082, 6909.035969857689, -187500.02235174447, -187500.02235174447, -0.182, -0.776, -0.628, 192.0, 0.0, 0.0, 0.0, 0.0, 0.0, 0.0, 0.0, 0.0, 0.0, 1.6776157693249228E9, 0.0, 2023-02-28 12:22:49.324
44.0, 27019.01221501973, -4416.3917799463015, 16520.040216450718, -3391.832517603936, 15105.93475174126, 7029.511872471795, -187500.02235174447, -187500.02235174447, -0.182, -0.776, -0.628, 192.0, 0.0, 0.0, 0.0, 0.0, 0.0, 0.0, 0.0, 0.0, 0.0, 1.6776157693278959E9, 0.0, 2023-02-28 12:22:49.327
45.0, 27009.31155792613, -4414.625992134332, 16526.186946175927, -3389.329122224942, 15111.455632621723, 7002.466261680873, -187500.02235174447, -187500.02235174447, -0.182, -0.776, -0.628, 192.0, 0.0, 0.0, 0.0, 0.0, 0.0, 0.0, 0.0, 0.0, 0.0, 1.6776157693319547E9, 0.0, 2023-02-28 12:22:49.331
46.0, 26955.04152238864, -4412.904907811273, 16236.64244850188, -3385.730491367637, 14966.415162851235, 6882.50444918924, -187500.02235174447, -187500.02235174447, -0.182, -0.776, -0.628, 192.0, 0.0, 0.0, 0.0, 0.0, 0.0, 0.0, 0.0, 0.0, 0.0, 1.6776157693349996E9, 0.0, 2023-02-28 12:22:49.334
47.0, 26952.9628101543, -4412.614335133354, 16192.006014824632, -3387.339816968419, 14942.990534662073, 6893.345045250064, -187500.02235174447, -187500.02235174447, -0.182, -0.776, -0.628, 192.0, 0.0, 0.0, 0.0, 0.0, 0.0, 0.0, 0.0, 0.0, 0.0, 1.6776157693380597E9, 0.0, 2023-02-28 12:22:49.338
48.0, 27005.891741024465, -4413.620163633843, 16475.91787289594, -3390.1784885142433, 15085.84053347594, 7015.519680442772, -187500.02235174447, -187500.02235174447, -0.184, -0.78, -0.626, 192.0, 250.0, 64.0, 231.0, 160.0, 236.0, 112.0, 0.0, 0.0, 0.0, 1.6776157693420196E9, 0.0, 2023-02-28 12:22:49.342
49.0, 27017.224075463306, -4417.799939846986, 16558.37345819157, -3390.6255234033497, 15125.604286861932, 7017.397226977018, -187500.02235174447, -187500.02235174447, -0.184, -0.78, -0.626, 192.0, 0.0, 0.0, 0.0, 0.0, 0.0, 0.0, 0.0, 0.0, 0.0, 1.6776157693449357E9, 0.0, 2023-02-28 12:22:49.344
50.0, 26984.545825069647, -4419.63278289232, 16285.235140947718, -3387.608037901883, 14985.771773549532, 6895.4684609733185, -187500.02235174447, -187500.02235174447, -0.184, -0.78, -0.626, 192.0, 0.0, 0.0, 0.0, 0.0, 0.0, 0.0, 0.0, 0.0, 0.0, 1.6776157693479805E9, 0.0, 2023-02-28 12:22:49.347
51.0, 26973.191138886352, -4415.832986334919, 16170.458933169715, -3386.423395445752, 14928.819528677408, 6877.721175875804, -187500.02235174447, -187500.02235174447, -0.184, -0.78, -0.626, 192.0, 0.0, 0.0, 0.0, 0.0, 0.0, 0.0, 0.0, 0.0, 0.0, 1.6776157693510065E9, 0.0, 2023-02-28 12:22:49.351
52.0, 27000.90730201093, -4413.955439800673, 16429.180375239896, -3389.418529202763, 15059.644288974321, 6997.772395345259, -187500.02235174447, -187500.02235174447, -0.184, -0.78, -0.626, 192.0, 0.0, 0.0, 0.0, 0.0, 0.0, 0.0, 0.0, 0.0, 0.0, 1.6776157693570042E9, 0.0, 2023-02-28 12:22:49.357
53.0, 27007.702232325344, -4412.726093855631, 16578.199455523427, -3389.127956524844, 15134.455577666233, 7030.942384116935, -187500.02235174447, -187500.02235174447, -0.184, -0.78, -0.626, 192.0, 0.0, 0.0, 0.0, 0.0, 0.0, 0.0, 0.0, 0.0, 0.0, 1.67761576936103E9, 0.0, 2023-02-28 12:22:49.361
54.0, 26966.016228916196, -4408.523965898034, 16336.398284005916, -3384.612904144872, 15012.616218640354, 6913.975705382312, -187500.02235174447, -187500.02235174447, -0.184, -0.78, -0.626, 192.0, 0.0, 0.0, 0.0, 0.0, 0.0, 0.0, 0.0, 0.0, 0.0, 1.6776157693639731E9, 0.0, 2023-02-28 12:22:49.363
55.0, 26952.38166479846, -4407.138157741804, 16160.512406887105, -3384.5458489115063, 14920.795252417953, 6867.081745515078, -187500.02235174447, -187500.02235174447, -0.184, -0.78, -0.626, 192.0, 0.0, 0.0, 0.0, 0.0, 0.0, 0.0, 0.0, 0.0, 0.0, 1.677615769368044E9, 0.0, 2023-02-28 12:22:49.368
56.0, 27001.30963341113, -4407.339323441902, 16374.262139113205, -3387.585686157428, 15029.000047326095, 6975.845334034602, -187500.02235174447, -187500.02235174447, -0.184, -0.78, -0.626, 192.0, 0.0, 0.0, 0.0, 0.0, 0.0, 0.0, 0.0, 0.0, 0.0, 1.6776157693710573E9, 0.0, 2023-02-28 12:22:49.371
57.0, 27027.930561057397, -4409.038056020505, 16578.266510756792, -3387.9209623242573, 15132.063941009515, 7037.625555709071, -187500.02235174447, -187500.02235174447, -0.184, -0.78, -0.626, 192.0, 0.0, 0.0, 0.0, 0.0, 0.0, 0.0, 0.0, 0.0, 0.0, 1.6776157693750396E9, 0.0, 2023-02-28 12:22:49.375
58.0, 26988.569139071602, -4411.764968844052, 16406.023967984198, -3385.417566945263, 15042.12052132136, 6943.770580741237, -187500.02235174447, -187500.02235174447, -0.186, -0.774, -0.624, 192.0, 250.0, 48.0, 231.0, 208.0, 236.0, 128.0, 0.0, 0.0, 0.0, 1.6776157693790612E9, 0.0, 2023-02-28 12:22:49.379
59.0, 26971.157130140917, -4413.329590955924, 16244.845538716978, -3386.378691956841, 14957.206244135648, 6896.541344707173, -187500.02235174447, -187500.02235174447, -0.186, -0.774, -0.624, 192.0, 0.0, 0.0, 0.0, 0.0, 0.0, 0.0, 0.0, 0.0, 0.0, 1.6776157693830788E9, 0.0, 2023-02-28 12:22:49.383
60.0, 26989.038525705164, -4414.804806089975, 16356.224281337772, -3388.390348957819, 15014.426709941234, 6960.400278615985, -187500.02235174447, -187500.02235174447, -0.186, -0.774, -0.624, 192.0, 0.0, 0.0, 0.0, 0.0, 0.0, 0.0, 0.0, 0.0, 0.0, 1.6776157693880017E9, 0.0, 2023-02-28 12:22:49.388
61.0, 27015.771212073712, -4414.067198522949, 16494.872152194042, -3388.4574041911847, 15088.388632343846, 7008.456529194896, -187500.02235174447, -187500.02235174447, -0.186, -0.774, -0.624, 192.0, 0.0, 0.0, 0.0, 0.0, 0.0, 0.0, 0.0, 0.0, 0.0, 1.677615769392048E9, 0.0, 2023-02-28 12:22:49.392
62.0, 27006.137610213475, -4410.803843832475, 16392.948197477843, -3385.976360556646, 15038.186614297227, 6952.688926778905, -187500.02235174447, -187500.02235174447, -0.186, -0.774, -0.624, 192.0, 0.0, 0.0, 0.0, 0.0, 0.0, 0.0, 0.0, 0.0, 0.0, 1.6776157693961961E9, 0.0, 2023-02-28 12:22:49.396
63.0, 26969.704266751323, -4409.418035676245, 16240.732817737202, -3384.992883800612, 14960.156674403748, 6899.268257530721, -187500.02235174447, -187500.02235174447, -0.186, -0.774, -0.624, 192.0, 0.0, 0.0, 0.0, 0.0, 0.0, 0.0, 0.0, 0.0, 0.0, 1.6776157693990653E9, 0.0, 2023-02-28 12:22:49.399
64.0, 26986.401019859437, -4412.659038622265, 16321.288504754128, -3387.5633344129724, 15000.345110934391, 6946.586900542606, -187500.02235174447, -187500.02235174447, -0.186, -0.774, -0.624, 192.0, 0.0, 0.0, 0.0, 0.0, 0.0, 0.0, 0.0, 0.0, 0.0, 1.677615769403114E9, 0.0, 2023-02-28 12:22:49.403
65.0, 27013.87131379501, -4413.575460144933, 16486.84787593459, -3389.1726600137545, 15084.544132297533, 7005.327284971152, -187500.02235174447, -187500.02235174447, -0.186, -0.774, -0.624, 192.0, 0.0, 0.0, 0.0, 0.0, 0.0, 0.0, 0.0, 0.0, 0.0, 1.677615769407077E9, 0.0, 2023-02-28 12:22:49.407
66.0, 26996.43695311987, -4412.591983388899, 16427.369883939016, -3388.032721046534, 15053.519910993566, 6962.858970506069, -187500.02235174447, -187500.02235174447, -0.186, -0.774, -0.624, 192.0, 0.0, 0.0, 0.0, 0.0, 0.0, 0.0, 0.0, 0.0, 0.0, 1.6776157694110823E9, 0.0, 2023-02-28 12:22:49.411
67.0, 26971.827682474577, -4412.63668687781, 16258.837730746, -3387.1610030127767, 14965.185816906192, 6897.100138318556, -187500.02235174447, -187500.02235174447, -0.186, -0.774, -0.624, 192.0, 0.0, 0.0, 0.0, 0.0, 0.0, 0.0, 0.0, 0.0, 0.0, 1.677615769415036E9, 0.0, 2023-02-28 12:22:49.415
68.0, 26979.181406400374, -4414.938916556706, 16297.394489931405, -3389.329122224942, 14983.357785148357, 6930.493644534785, -187500.02235174447, -187500.02235174447, -0.178, -0.774, -0.624, 192.0, 250.0, 112.0, 231.0, 208.0, 236.0, 128.0, 0.0, 0.0, 0.0, 1.6776157694200685E9, 0.0, 2023-02-28 12:22:49.420
69.0, 27006.606996847036, -4417.442311935701, 16471.7380966828, -3391.027854803545, 15073.927053681262, 6999.225258734854, -187500.02235174447, -187500.02235174447, -0.178, -0.774, -0.624, 192.0, 0.0, 0.0, 0.0, 0.0, 0.0, 0.0, 0.0, 0.0, 0.0, 1.6776157694241097E9, 0.0, 2023-02-28 12:22:49.424
70.0, 27000.572025844103, -4418.246974736092, 16455.48837846379, -3390.3349507254306, 15064.762838454586, 6971.3079299101755, -187500.02235174447, -187500.02235174447, -0.178, -0.774, -0.624, 192.0, 0.0, 0.0, 0.0, 0.0, 0.0, 0.0, 0.0, 0.0, 0.0, 1.6776157694281628E9, 0.0, 2023-02-28 12:22:49.428
71.0, 26976.25332787673, -4418.090512524905, 16280.094239722997, -3388.345645468908, 14974.193569921681, 6899.782347653192, -187500.02235174447, -187500.02235174447, -0.178, -0.774, -0.624, 192.0, 0.0, 0.0, 0.0, 0.0, 0.0, 0.0, 0.0, 0.0, 0.0, 1.677615769431098E9, 0.0, 2023-02-28 12:22:49.431
72.0, 26988.233862904774, -4419.968059059151, 16275.17685594283, -3389.91026758078, 14969.097372185872, 6915.294458305176, -187500.02235174447, -187500.02235174447, -0.178, -0.774, -0.624, 192.0, 0.0, 0.0, 0.0, 0.0, 0.0, 0.0, 0.0, 0.0, 0.0, 1.6776157694352007E9, 0.0, 2023-02-28 12:22:49.435
73.0, 27009.78094455969, -4421.197405004193, 16450.481587705803, -3391.6984071372044, 15059.420771529767, 6988.518773140761, -187500.02235174447, -187500.02235174447, -0.178, -0.774, -0.624, 192.0, 0.0, 0.0, 0.0, 0.0, 0.0, 0.0, 0.0, 0.0, 0.0, 1.6776157694391196E9, 0.0, 2023-02-28 12:22:49.439
74.0, 26994.827627519087, -4423.20906200517, 16478.823599675132, -3390.223192003154, 15074.195274614725, 6982.550857371195, -187500.02235174447, -187500.02235174447, -0.178, -0.774, -0.624, 192.0, 0.0, 0.0, 0.0, 0.0, 0.0, 0.0, 0.0, 0.0, 0.0, 1.6776157694431376E9, 0.0, 2023-02-28 12:22:49.443
75.0, 26946.659618217902, -4423.946669572195, 16307.855106336488, -3388.546811169006, 14985.257683427059, 6907.538402979184, -187500.02235174447, -187500.02235174447, -0.178, -0.774, -0.624, 192.0, 0.0, 0.0, 0.0, 0.0, 0.0, 0.0, 0.0, 0.0, 0.0, 1.6776157694491367E9, 0.0, 2023-02-28 12:22:49.449
76.0, 26944.424443772372, -4423.164358516259, 16257.764847012146, -3389.7985088585033, 14960.71546801513, 6904.36445526653, -187500.02235174447, -187500.02235174447, -0.178, -0.774, -0.624, 192.0, 0.0, 0.0, 0.0, 0.0, 0.0, 0.0, 0.0, 0.0, 0.0, 1.677615769452124E9, 0.0, 2023-02-28 12:22:49.452
77.0, 26978.980240700275, -4422.896137582796, 16420.217325713318, -3391.161965270277, 15047.574346968455, 6976.739403812815, -187500.02235174447, -187500.02235174447, -0.178, -0.774, -0.624, 192.0, 0.0, 0.0, 0.0, 0.0, 0.0, 0.0, 0.0, 0.0, 0.0, 1.677615769456142E9, 0.0, 2023-02-28 12:22:49.456
78.0, 26987.11627568201, -4422.516157927055, 16492.54757077069, -3389.8208606029584, 15085.88523696485, 6987.825869062647, -187500.02235174447, -187500.02235174447, -0.184, -0.774, -0.62, 192.0, 250.0, 64.0, 231.0, 208.0, 236.0, 160.0, 0.0, 0.0, 0.0, 1.6776157694591587E9, 0.0, 2023-02-28 12:22:49.459
79.0, 26962.23878410325, -4420.370390459346, 16337.582926462046, -3386.9151338237684, 15007.318855204447, 6916.859080417047, -187500.02235174447, -187500.02235174447, -0.184, -0.774, -0.62, 192.0, 0.0, 0.0, 0.0, 0.0, 0.0, 0.0, 0.0, 0.0, 0.0, 1.6776157694631555E9, 0.0, 2023-02-28 12:22:49.463
80.0, 26951.800519442622, -4417.73288461362, 16246.343105595482, -3385.395215200808, 14961.453075582156, 6897.4130627409295, -187500.02235174447, -187500.02235174447, -0.184, -0.774, -0.62, 192.0, 0.0, 0.0, 0.0, 0.0, 0.0, 0.0, 0.0, 0.0, 0.0, 1.67761576946722E9, 0.0, 2023-02-28 12:22:49.467
81.0, 26980.701325023336, -4417.73288461362, 16388.34373812005, -3387.093947779411, 15034.83385262893, 6967.530485097228, -187500.02235174447, -187500.02235174447, -0.184, -0.774, -0.62, 192.0, 0.0, 0.0, 0.0, 0.0, 0.0, 0.0, 0.0, 0.0, 0.0, 1.6776157694712212E9, 0.0, 2023-02-28 12:22:49.471
82.0, 27006.048203235652, -4414.938916556706, 16497.97904467333, -3386.222229745654, 15094.580065557966, 6999.091148268122, -187500.02235174447, -187500.02235174447, -0.184, -0.774, -0.62, 192.0, 0.0, 0.0, 0.0, 0.0, 0.0, 0.0, 0.0, 0.0, 0.0, 1.677615769476185E9, 0.0, 2023-02-28 12:22:49.476
83.0, 26976.00745868772, -4416.704704368675, 16368.115409387996, -3385.5293256675395, 15027.077797302938, 6931.834749202103, -187500.02235174447, -187500.02235174447, -0.184, -0.774, -0.62, 192.0, 0.0, 0.0, 0.0, 0.0, 0.0, 0.0, 0.0, 0.0, 0.0, 1.6776157694801445E9, 0.0, 2023-02-28 12:22:49.480
84.0, 26959.556574768612, -4417.084684024416, 16243.370323582927, -3386.065767534467, 14959.91080521474, 6893.03212082769, -187500.02235174447, -187500.02235174447, -0.184, -0.774, -0.62, 192.0, 0.0, 0.0, 0.0, 0.0, 0.0, 0.0, 0.0, 0.0, 0.0, 1.6776157694831424E9, 0.0, 2023-02-28 12:22:49.483
85.0, 26991.988955973266, -4413.441349678201, 16354.391438292438, -3387.2057065016875, 15018.226506498637, 6952.085429678611, -187500.02235174447, -187500.02235174447, -0.184, -0.774, -0.62, 192.0, 0.0, 0.0, 0.0, 0.0, 0.0, 0.0, 0.0, 0.0, 0.0, 1.677615769487177E9, 0.0, 2023-02-28 12:22:49.487
86.0, 27013.223113205804, -4411.809672332964, 16496.727346983833, -3386.7810233570367, 15096.837591747952, 6999.225258734854, -187500.02235174447, -187500.02235174447, -0.184, -0.774, -0.62, 192.0, 0.0, 0.0, 0.0, 0.0, 0.0, 0.0, 0.0, 0.0, 0.0, 1.6776157694911706E9, 0.0, 2023-02-28 12:22:49.491
87.0, 26995.565235086113, -4413.508404911567, 16400.52543884819, -3385.2164012451653, 15047.26142254608, 6942.988269685301, -187500.02235174447, -187500.02235174447, -0.184, -0.774, -0.62, 192.0, 0.0, 0.0, 0.0, 0.0, 0.0, 0.0, 0.0, 0.0, 0.0, 1.6776157694951785E9, 0.0, 2023-02-28 12:22:49.495
88.0, 26978.399095344437, -4414.469529923145, 16248.555928296559, -3384.6352558893273, 14965.364630861835, 6890.886353359981, -187500.02235174447, -187500.02235174447, -0.18, -0.774, -0.622, 192.0, 250.0, 96.0, 231.0, 208.0, 236.0, 144.0, 0.0, 0.0, 0.0, 1.6776157694991877E9, 0.0, 2023-02-28 12:22:49.499
89.0, 26986.602185559535, -4416.749407857586, 16323.881307110943, -3387.8315553464363, 15003.004968524572, 6938.227348116321, -187500.02235174447, -187500.02235174447, -0.18, -0.774, -0.622, 192.0, 0.0, 0.0, 0.0, 0.0, 0.0, 0.0, 0.0, 0.0, 0.0, 1.6776157695042665E9, 0.0, 2023-02-28 12:22:49.504
90.0, 27006.15996195793, -4417.107035768871, 16491.36292831456, -3389.619694902861, 15089.685033522253, 6998.57705814565, -187500.02235174447, -187500.02235174447, -0.18, -0.774, -0.622, 192.0, 0.0, 0.0, 0.0, 0.0, 0.0, 0.0, 0.0, 0.0, 0.0, 1.6776157695081992E9, 0.0, 2023-02-28 12:22:49.508
91.0, 26983.38353435797, -4417.755236358075, 16436.176471254406, -3388.3679972133637, 15060.560710496988, 6955.929929724924, -187500.02235174447, -187500.02235174447, -0.18, -0.774, -0.622, 192.0, 0.0, 0.0, 0.0, 0.0, 0.0, 0.0, 0.0, 0.0, 0.0, 1.6776157695121984E9, 0.0, 2023-02-28 12:22:49.512
92.0, 26951.7111124648, -4420.660963137265, 16267.17493142783, -3387.2727617350533, 14973.031279210005, 6888.785289381181, -187500.02235174447, -187500.02235174447, -0.18, -0.774, -0.622, 192.0, 0.0, 0.0, 0.0, 0.0, 0.0, 0.0, 0.0, 0.0, 0.0, 1.6776157695151632E9, 0.0, 2023-02-28 12:22:49.515
93.0, 26963.0657986481, -4423.521986427544, 16300.300216710595, -3389.91026758078, 14989.549218362477, 6917.619039728527, -187500.02235174447, -187500.02235174447, -0.18, -0.774, -0.622, 192.0, 0.0, 0.0, 0.0, 0.0, 0.0, 0.0, 0.0, 0.0, 0.0, 1.6776157695191977E9, 0.0, 2023-02-28 12:22:49.519
94.0, 26994.447647863348, -4424.4384079502115, 16477.281329307716, -3392.4136629597742, 15080.230245617659, 6987.2223719623535, -187500.02235174447, -187500.02235174447, -0.18, -0.774, -0.622, 192.0, 0.0, 0.0, 0.0, 0.0, 0.0, 0.0, 0.0, 0.0, 0.0, 1.677615769523196E9, 0.0, 2023-02-28 12:22:49.523
95.0, 26997.554540342637, -4424.840739350408, 16467.625375703024, -3391.7878141150254, 15074.955233926206, 6963.574226328639, -187500.02235174447, -187500.02235174447, -0.18, -0.774, -0.622, 192.0, 0.0, 0.0, 0.0, 0.0, 0.0, 0.0, 0.0, 0.0, 0.0, 1.6776157695271666E9, 0.0, 2023-02-28 12:22:49.527
96.0, 26988.30091813814, -4426.561823673466, 16294.153486985386, -3390.9160960812687, 14983.44719212618, 6893.233286527788, -187500.02235174447, -187500.02235174447, -0.18, -0.774, -0.622, 192.0, 0.0, 0.0, 0.0, 0.0, 0.0, 0.0, 0.0, 0.0, 0.0, 1.6776157695312016E9, 0.0, 2023-02-28 12:22:49.531
97.0, 26989.86554025001, -4425.3771812173345, 16282.664690335358, -3391.899572837302, 14976.696965300676, 6909.505356491251, -187500.02235174447, -187500.02235174447, -0.18, -0.774, -0.622, 192.0, 0.0, 0.0, 0.0, 0.0, 0.0, 0.0, 0.0, 0.0, 0.0, 1.6776157695372908E9, 0.0, 2023-02-28 12:22:49.537
98.0, 26996.280490908684, -4425.511291684066, 16455.376619741513, -3393.9559333271905, 15066.103943121905, 6983.266113193765, -187500.02235174447, -187500.02235174447, -0.18, -0.774, -0.622, 192.0, 0.0, 0.0, 0.0, 0.0, 0.0, 0.0, 0.0, 0.0, 0.0, 1.6776157695404592E9, 0.0, 2023-02-28 12:22:49.540
99.0, 26984.43406634737, -4426.9641550736615, 16488.300739324182, -3393.0171600600675, 15086.734603254154, 6978.2369706913205, -187500.02235174447, -187500.02235174447, -0.184, -0.77, -0.628, 192.0, 250.0, 64.0, 231.0, 240.0, 236.0, 96.0, 0.0, 0.0, 0.0, 1.6776157695441742E9, 0.0, 2023-02-28 12:22:49.544
100.0, 26950.884097919956, -4427.9029283407845, 16318.56159193058, -3390.871392592358, 14999.339282433903, 6905.236173300287, -187500.02235174447, -187500.02235174447, -0.184, -0.77, -0.628, 192.0, 0.0, 0.0, 0.0, 0.0, 0.0, 0.0, 0.0, 0.0, 0.0, 1.677615769547242E9, 0.0, 2023-02-28 12:22:49.547
101.0, 26949.453586274816, -4427.232376007125, 16263.55394882607, -3390.513764681073, 14970.43847685319, 6901.928115120902, -187500.02235174447, -187500.02235174447, -0.184, -0.77, -0.628, 192.0, 0.0, 0.0, 0.0, 0.0, 0.0, 0.0, 0.0, 0.0, 0.0, 1.67761576955127E9, 0.0, 2023-02-28 12:22:49.551
102.0, 26980.85778723452, -4426.07008529545, 16423.01129377023, -3391.452537948196, 15053.564614482477, 6975.375947401041, -187500.02235174447, -187500.02235174447, -0.184, -0.77, -0.628, 192.0, 0.0, 0.0, 0.0, 0.0, 0.0, 0.0, 0.0, 0.0, 0.0, 1.6776157695552223E9, 0.0, 2023-02-28 12:22:49.555
103.0, 26991.944252484354, -4425.064256794961, 16499.49896329629, -3390.580819914439, 15094.982396958161, 6990.441023163918, -187500.02235174447, -187500.02235174447, -0.184, -0.77, -0.628, 192.0, 0.0, 0.0, 0.0, 0.0, 0.0, 0.0, 0.0, 0.0, 0.0, 1.6776157695602725E9, 0.0, 2023-02-28 12:22:49.560
104.0, 26969.8160254736, -4423.946669572195, 16348.46822601178, -3388.323293724453, 15016.281904731024, 6919.116606607033, -187500.02235174447, -187500.02235174447, -0.184, -0.77, -0.628, 192.0, 0.0, 0.0, 0.0, 0.0, 0.0, 0.0, 0.0, 0.0, 0.0, 1.67761576956424E9, 0.0, 2023-02-28 12:22:49.564
105.0, 26955.62266774448, -4426.11478878436, 16254.277974877117, -3389.7314536251374, 14963.956470961151, 6895.691978417872, -187500.02235174447, -187500.02235174447, -0.184, -0.77, -0.628, 192.0, 0.0, 0.0, 0.0, 0.0, 0.0, 0.0, 0.0, 0.0, 0.0, 1.6776157695672257E9, 0.0, 2023-02-28 12:22:49.567
106.0, 26989.731429783278, -4425.511291684066, 16392.523514333192, -3390.7372821256263, 15035.794977640508, 6965.004737973779, -187500.02235174447, -187500.02235174447, -0.184, -0.77, -0.628, 192.0, 0.0, 0.0, 0.0, 0.0, 0.0, 0.0, 0.0, 0.0, 0.0, 1.677615769570393E9, 0.0, 2023-02-28 12:22:49.570
107.0, 27009.378613159493, -4423.4996346830885, 16506.226838377337, -3389.619694902861, 15096.949350470228, 6998.733520356837, -187500.02235174447, -187500.02235174447, -0.184, -0.77, -0.628, 192.0, 0.0, 0.0, 0.0, 0.0, 0.0, 0.0, 0.0, 0.0, 0.0, 1.677615769576326E9, 0.0, 2023-02-28 12:22:49.576
108.0, 26977.86265347751, -4423.857262594373, 16379.648909526935, -3387.5633344129724, 15032.777492139041, 6933.019391658234, -187500.02235174447, -187500.02235174447, -0.184, -0.77, -0.628, 192.0, 0.0, 0.0, 0.0, 0.0, 0.0, 0.0, 0.0, 0.0, 0.0, 1.677615769579363E9, 0.0, 2023-02-28 12:22:49.579
109.0, 26952.694589220835, -4424.550166672489, 16250.098198663974, -3387.4068722017855, 14965.476389584112, 6891.1322225489885, -187500.02235174447, -187500.02235174447, -0.18, -0.766, -0.624, 192.0, 250.0, 96.0, 232.0, 16.0, 236.0, 128.0, 0.0, 0.0, 0.0, 1.6776157695834095E9, 0.0, 2023-02-28 12:22:49.583
110.0, 26975.56042379861, -4424.2595939945695, 16357.073647627074, -3390.1784885142433, 15022.58509666742, 6948.106819165567, -187500.02235174447, -187500.02235174447, -0.18, -0.766, -0.624, 192.0, 0.0, 0.0, 0.0, 0.0, 0.0, 0.0, 0.0, 0.0, 0.0, 1.6776157695873213E9, 0.0, 2023-02-28 12:22:49.587
111.0, 26993.10654319603, -4425.801864361985, 16502.6952627534, -3390.7372821256263, 15098.603379559921, 6999.627590135049, -187500.02235174447, -187500.02235174447, -0.18, -0.766, -0.624, 192.0, 0.0, 0.0, 0.0, 0.0, 0.0, 0.0, 0.0, 0.0, 0.0, 1.6776157695913098E9, 0.0, 2023-02-28 12:22:49.591
112.0, 26977.840301733057, -4423.119655027349, 16410.561372108623, -3387.4292239462407, 15050.5024254921, 6948.2409296322985, -187500.02235174447, -187500.02235174447, -0.18, -0.766, -0.624, 192.0, 0.0, 0.0, 0.0, 0.0, 0.0, 0.0, 0.0, 0.0, 0.0, 1.6776157695942729E9, 0.0, 2023-02-28 12:22:49.594
113.0, 26947.397225784927, -4425.1983672616925, 16256.31198362255, -3387.1610030127767, 14968.359764618846, 6893.79208013917, -187500.02235174447, -187500.02235174447, -0.18, -0.766, -0.624, 192.0, 0.0, 0.0, 0.0, 0.0, 0.0, 0.0, 0.0, 0.0, 0.0, 1.6776157696003852E9, 0.0, 2023-02-28 12:22:49.600
114.0, 26962.41759805889, -4427.746466129597, 16326.51881295667, -3389.7538053695926, 15004.5919423809, 6937.914423693946, -187500.02235174447, -187500.02235174447, -0.18, -0.766, -0.624, 192.0, 0.0, 0.0, 0.0, 0.0, 0.0, 0.0, 0.0, 0.0, 0.0, 1.6776157696033347E9, 0.0, 2023-02-28 12:22:49.603
115.0, 26998.0239269762, -4427.299431240491, 16491.31822482565, -3391.027854803545, 15091.808449245507, 6997.012436033779, -187500.02235174447, -187500.02235174447, -0.18, -0.766, -0.624, 192.0, 0.0, 0.0, 0.0, 0.0, 0.0, 0.0, 0.0, 0.0, 0.0, 1.677615769607353E9, 0.0, 2023-02-28 12:22:49.607
116.0, 26968.541976039647, -4431.836835364918, 16440.19978525636, -3389.7761571140477, 15063.779361698553, 6958.2768628927315, -187500.02235174447, -187500.02235174447, -0.18, -0.766, -0.624, 192.0, 0.0, 0.0, 0.0, 0.0, 0.0, 0.0, 0.0, 0.0, 0.0, 1.6776157696133642E9, 0.0, 2023-02-28 12:22:49.613
117.0, 26917.22237077026, -4439.190559290714, 16271.578225085525, -3389.217363502665, 14973.411258865746, 6890.260504515231, -187500.02235174447, -187500.02235174447, -0.18, -0.766, -0.624, 192.0, 0.0, 0.0, 0.0, 0.0, 0.0, 0.0, 0.0, 0.0, 0.0, 1.6776157696163774E9, 0.0, 2023-02-28 12:22:49.616
118.0, 26928.37589125346, -4439.861111624374, 16299.830830077033, -3390.9160960812687, 14987.805782294963, 6919.295420562676, -187500.02235174447, -187500.02235174447, -0.18, -0.766, -0.624, 192.0, 0.0, 0.0, 0.0, 0.0, 0.0, 0.0, 0.0, 0.0, 0.0, 1.6776157696193392E9, 0.0, 2023-02-28 12:22:49.619
119.0, 26952.828699687565, -4441.761009903074, 16473.995622872786, -3392.614828659872, 15076.251635104614, 6989.614008619072, -187500.02235174447, -187500.02235174447, -0.178, -0.768, -0.624, 192.0, 250.0, 112.0, 232.0, 0.0, 236.0, 128.0, 0.0, 0.0, 0.0, 1.6776157696232903E9, 0.0, 2023-02-28 12:22:49.623
120.0, 26924.911370862887, -4448.712402428675, 16468.005355358764, -3392.5924769154167, 15072.74241122513, 6967.038746719211, -187500.02235174447, -187500.02235174447, -0.178, -0.768, -0.624, 192.0, 0.0, 0.0, 0.0, 0.0, 0.0, 0.0, 0.0, 0.0, 0.0, 1.67761576962735E9, 0.0, 2023-02-28 12:22:49.627
121.0, 26870.75309404768, -4456.490809499122, 16294.153486985386, -3391.9889798151235, 14982.083735714405, 6893.4791557167955, -187500.02235174447, -187500.02235174447, -0.178, -0.768, -0.624, 192.0, 0.0, 0.0, 0.0, 0.0, 0.0, 0.0, 0.0, 0.0, 0.0, 1.6776157696312523E9, 0.0, 2023-02-28 12:22:49.631
122.0, 26863.13114918842, -4460.69293745672, 16280.65303333438, -3394.2688577495646, 14972.517189087534, 6904.073882588611, -187500.02235174447, -187500.02235174447, -0.178, -0.768, -0.624, 192.0, 0.0, 0.0, 0.0, 0.0, 0.0, 0.0, 0.0, 0.0, 0.0, 1.6776157696353035E9, 0.0, 2023-02-28 12:22:49.635
123.0, 26885.08056224353, -4462.436373524234, 16452.11326505104, -3396.794604873014, 15057.677335462253, 6978.460488135874, -187500.02235174447, -187500.02235174447, -0.178, -0.768, -0.624, 192.0, 0.0, 0.0, 0.0, 0.0, 0.0, 0.0, 0.0, 0.0, 0.0, 1.677615769639326E9, 0.0, 2023-02-28 12:22:49.639
124.0, 26872.585937093012, -4466.8173154374745, 16490.178285858427, -3396.749901384104, 15076.788076971541, 6975.8900375235135, -187500.02235174447, -187500.02235174447, -0.178, -0.768, -0.624, 192.0, 0.0, 0.0, 0.0, 0.0, 0.0, 0.0, 0.0, 0.0, 0.0, 1.6776157696433268E9, 0.0, 2023-02-28 12:22:49.643
125.0, 26820.953407401255, -4473.902818429807, 16326.027074578653, -3396.9734188286566, 14986.665843327743, 6900.676417431405, -187500.02235174447, -187500.02235174447, -0.178, -0.768, -0.624, 192.0, 0.0, 0.0, 0.0, 0.0, 0.0, 0.0, 0.0, 0.0, 0.0, 1.6776157696473413E9, 0.0, 2023-02-28 12:22:49.647
126.0, 26798.64636643486, -4480.831859210952, 16269.521864595637, -3399.2756485075533, 14951.841825466374, 6892.69684466086, -187500.02235174447, -187500.02235174447, -0.178, -0.768, -0.624, 192.0, 0.0, 0.0, 0.0, 0.0, 0.0, 0.0, 0.0, 0.0, 0.0, 1.6776157696503413E9, 0.0, 2023-02-28 12:22:49.650
127.0, 26830.20702960575, -4481.323597588968, 16426.63227637199, -3400.974381086157, 15030.721131649154, 6966.859932763569, -187500.02235174447, -187500.02235174447, -0.178, -0.768, -0.624, 192.0, 0.0, 0.0, 0.0, 0.0, 0.0, 0.0, 0.0, 0.0, 0.0, 1.6776157696553998E9, 0.0, 2023-02-28 12:22:49.655
128.0, 26834.386805818893, -4483.357606334402, 16507.344425600102, -3401.287305508531, 15072.340079824935, 6984.651921349993, -187500.02235174447, -187500.02235174447, -0.178, -0.768, -0.624, 192.0, 0.0, 0.0, 0.0, 0.0, 0.0, 0.0, 0.0, 0.0, 0.0, 1.6776157696594028E9, 0.0, 2023-02-28 12:22:49.659
129.0, 26788.36456398542, -4488.252638370113, 16357.52068251618, -3399.610924674383, 14993.952512020172, 6910.645295458472, -187500.02235174447, -187500.02235174447, -0.18, -0.77, -0.622, 192.0, 250.0, 96.0, 231.0, 240.0, 236.0, 144.0, 0.0, 0.0, 0.0, 1.6776157696633475E9, 0.0, 2023-02-28 12:22:49.663
130.0, 26767.309220708517, -4491.136013404848, 16259.016544701642, -3399.253296763098, 14941.135339872282, 6887.421832969408, -187500.02235174447, -187500.02235174447, -0.18, -0.77, -0.622, 192.0, 0.0, 0.0, 0.0, 0.0, 0.0, 0.0, 0.0, 0.0, 0.0, 1.6776157696673815E9, 0.0, 2023-02-28 12:22:49.667
131.0, 26790.15270354184, -4493.170022150281, 16392.747031777744, -3401.0861398084335, 15010.06811977245, 6955.70641228037, -187500.02235174447, -187500.02235174447, -0.18, -0.77, -0.622, 192.0, 0.0, 0.0, 0.0, 0.0, 0.0, 0.0, 0.0, 0.0, 0.0, 1.6776157696714032E9, 0.0, 2023-02-28 12:22:49.671
132.0, 26803.34023277047, -4494.064091928493, 16511.770071002255, -3401.8908026088243, 15071.848341446917, 6990.530430141739, -187500.02235174447, -187500.02235174447, -0.18, -0.77, -0.622, 192.0, 0.0, 0.0, 0.0, 0.0, 0.0, 0.0, 0.0, 0.0, 0.0, 1.6776157696753678E9, 0.0, 2023-02-28 12:22:49.675
133.0, 26771.421941688295, -4494.779347751063, 16389.595435809548, -3400.1697182857656, 15008.391738938302, 6925.6433159879825, -187500.02235174447, -187500.02235174447, -0.18, -0.77, -0.622, 192.0, 0.0, 0.0, 0.0, 0.0, 0.0, 0.0, 0.0, 0.0, 0.0, 1.6776157696803687E9, 0.0, 2023-02-28 12:22:49.680
134.0, 26751.305371678518, -4493.84057448394, 16258.837730746, -3399.8120903744807, 14938.296668326459, 6885.968969579812, -187500.02235174447, -187500.02235174447, -0.18, -0.77, -0.622, 192.0, 0.0, 0.0, 0.0, 0.0, 0.0, 0.0, 0.0, 0.0, 0.0, 1.6776157696833823E9, 0.0, 2023-02-28 12:22:49.683
135.0, 26780.09441853695, -4492.052434927516, 16363.846226197033, -3400.7285118971486, 14992.186724208204, 6947.346859854086, -187500.02235174447, -187500.02235174447, -0.18, -0.77, -0.622, 192.0, 0.0, 0.0, 0.0, 0.0, 0.0, 0.0, 0.0, 0.0, 0.0, 1.6776157696873765E9, 0.0, 2023-02-28 12:22:49.687
136.0, 26801.954424614243, -4491.381882593856, 16510.384262846026, -3401.332008997442, 15067.668565233776, 7001.549840158205, -187500.02235174447, -187500.02235174447, -0.18, -0.77, -0.622, 192.0, 0.0, 0.0, 0.0, 0.0, 0.0, 0.0, 0.0, 0.0, 0.0, 1.6776157696933813E9, 0.0, 2023-02-28 12:22:49.693
137.0, 26770.48316842117, -4495.293437873535, 16424.464157159826, -3401.2426020196203, 15018.941762321207, 6950.140827910999, -187500.02235174447, -187500.02235174447, -0.18, -0.77, -0.622, 192.0, 0.0, 0.0, 0.0, 0.0, 0.0, 0.0, 0.0, 0.0, 0.0, 1.6776157696963584E9, 0.0, 2023-02-28 12:22:49.696
138.0, 26737.469641860684, -4497.953295463717, 16268.22546341723, -3400.393235730319, 14937.357895059336, 6892.69684466086, -187500.02235174447, -187500.02235174447, -0.18, -0.77, -0.622, 192.0, 0.0, 0.0, 0.0, 0.0, 0.0, 0.0, 0.0, 0.0, 0.0, 1.6776157697004735E9, 0.0, 2023-02-28 12:22:49.700
139.0, 26751.52888912307, -4499.227344897669, 16334.230164793751, -3402.382540986841, 14971.176084420214, 6937.690906249393, -187500.02235174447, -187500.02235174447, -0.184, -0.774, -0.62, 192.0, 250.0, 64.0, 231.0, 208.0, 236.0, 160.0, 0.0, 0.0, 0.0, 1.6776157697034342E9, 0.0, 2023-02-28 12:22:49.703
140.0, 26775.266441734606, -4500.32258037598, 16501.152992385985, -3404.3941979878186, 15056.64915521731, 7000.231087235343, -187500.02235174447, -187500.02235174447, -0.184, -0.774, -0.62, 192.0, 0.0, 0.0, 0.0, 0.0, 0.0, 0.0, 0.0, 0.0, 0.0, 1.6776157697064068E9, 0.0, 2023-02-28 12:22:49.706
141.0, 26763.151796239832, -4500.657856542809, 16456.11422730854, -3403.7459973986147, 15032.889250861319, 6961.428458860929, -187500.02235174447, -187500.02235174447, -0.184, -0.774, -0.62, 192.0, 0.0, 0.0, 0.0, 0.0, 0.0, 0.0, 0.0, 0.0, 0.0, 1.6776157697104356E9, 0.0, 2023-02-28 12:22:49.710
142.0, 26735.681502304258, -4500.546097820532, 16285.70452758128, -3402.7625206425814, 14943.169348617716, 6893.121527805511, -187500.02235174447, -187500.02235174447, -0.184, -0.774, -0.62, 192.0, 0.0, 0.0, 0.0, 0.0, 0.0, 0.0, 0.0, 0.0, 0.0, 1.677615769715391E9, 0.0, 2023-02-28 12:22:49.715
143.0, 26744.75631055311, -4504.010618211105, 16308.257437736684, -3405.869413121869, 14951.283031854991, 6920.1894903408875, -187500.02235174447, -187500.02235174447, -0.184, -0.774, -0.62, 192.0, 0.0, 0.0, 0.0, 0.0, 0.0, 0.0, 0.0, 0.0, 0.0, 1.6776157697194772E9, 0.0, 2023-02-28 12:22:49.719
144.0, 26761.229546216673, -4507.698656046231, 16480.5893874871, -3407.9481253562126, 15038.946573608706, 6993.547915643206, -187500.02235174447, -187500.02235174447, -0.184, -0.774, -0.62, 192.0, 0.0, 0.0, 0.0, 0.0, 0.0, 0.0, 0.0, 0.0, 0.0, 1.6776157697234275E9, 0.0, 2023-02-28 12:22:49.723
145.0, 26755.172223469286, -4508.70448454672, 16477.013108374253, -3406.3387997554305, 15035.45970147368, 6978.125211969043, -187500.02235174447, -187500.02235174447, -0.184, -0.774, -0.62, 192.0, 0.0, 0.0, 0.0, 0.0, 0.0, 0.0, 0.0, 0.0, 0.0, 1.6776157697284143E9, 0.0, 2023-02-28 12:22:49.728
146.0, 26724.37151960987, -4508.36920837989, 16304.032958034632, -3404.6624189212826, 14945.516281785523, 6906.3314087785975, -187500.02235174447, -187500.02235174447, -0.184, -0.774, -0.62, 192.0, 0.0, 0.0, 0.0, 0.0, 0.0, 0.0, 0.0, 0.0, 0.0, 1.677615769731412E9, 0.0, 2023-02-28 12:22:49.731
147.0, 26729.691234790236, -4507.050455457027, 16283.536408369115, -3405.7129509106817, 14934.787444446976, 6918.155481595455, -187500.02235174447, -187500.02235174447, -0.184, -0.774, -0.62, 192.0, 0.0, 0.0, 0.0, 0.0, 0.0, 0.0, 0.0, 0.0, 0.0, 1.6776157697344112E9, 0.0, 2023-02-28 12:22:49.734
148.0, 26763.44236891775, -4507.3186763904905, 16453.320259251628, -3407.836366633936, 15022.78626236752, 6993.257342965287, -187500.02235174447, -187500.02235174447, -0.184, -0.774, -0.62, 192.0, 0.0, 0.0, 0.0, 0.0, 0.0, 0.0, 0.0, 0.0, 0.0, 1.6776157697393847E9, 0.0, 2023-02-28 12:22:49.739
149.0, 26757.9661915262, -4509.665609558298, 16496.50382953928, -3406.875241622358, 15043.081646332937, 6994.374930188052, -187500.02235174447, -187500.02235174447, -0.182, -0.776, -0.618, 192.0, 250.0, 80.0, 231.0, 192.0, 236.0, 176.0, 0.0, 0.0, 0.0, 1.6776157697435248E9, 0.0, 2023-02-28 12:22:49.743
150.0, 26721.845772486424, -4509.442092113744, 16329.75981590269, -3403.7683491430703, 14956.043953423972, 6919.965972896335, -187500.02235174447, -187500.02235174447, -0.182, -0.776, -0.618, 192.0, 0.0, 0.0, 0.0, 0.0, 0.0, 0.0, 0.0, 0.0, 0.0, 1.677615769747448E9, 0.0, 2023-02-28 12:22:49.747
151.0, 26722.56102830899, -4506.0893304454485, 16264.827998260022, -3403.254259020598, 14923.43275826368, 6909.237135557787, -187500.02235174447, -187500.02235174447, -0.182, -0.776, -0.618, 192.0, 0.0, 0.0, 0.0, 0.0, 0.0, 0.0, 0.0, 0.0, 0.0, 1.6776157697514808E9, 0.0, 2023-02-28 12:22:49.751
152.0, 26760.648400860835, -4504.3235426334795, 16421.24550595826, -3404.7518258991036, 15005.106032503372, 6980.092165481111, -187500.02235174447, -187500.02235174447, -0.182, -0.776, -0.618, 192.0, 0.0, 0.0, 0.0, 0.0, 0.0, 0.0, 0.0, 0.0, 0.0, 1.6776157697554376E9, 0.0, 2023-02-28 12:22:49.755
153.0, 26773.25478473363, -4505.284667645057, 16506.964445944363, -3404.774177643559, 15048.557823724488, 7000.499308168806, -187500.02235174447, -187500.02235174447, -0.182, -0.776, -0.618, 192.0, 0.0, 0.0, 0.0, 0.0, 0.0, 0.0, 0.0, 0.0, 0.0, 1.6776157697595243E9, 0.0, 2023-02-28 12:22:49.759
154.0, 26740.800051784525, -4506.17873742327, 16360.09113312854, -3403.0754450649556, 14971.220787909126, 6930.560699768151, -187500.02235174447, -187500.02235174447, -0.182, -0.776, -0.618, 192.0, 0.0, 0.0, 0.0, 0.0, 0.0, 0.0, 0.0, 0.0, 0.0, 1.6776157697624607E9, 0.0, 2023-02-28 12:22:49.762
155.0, 26732.66401680279, -4505.709350789708, 16258.144826667885, -3402.941334598224, 14918.403615761235, 6904.096234333067, -187500.02235174447, -187500.02235174447, -0.182, -0.776, -0.618, 192.0, 0.0, 0.0, 0.0, 0.0, 0.0, 0.0, 0.0, 0.0, 0.0, 1.677615769767482E9, 0.0, 2023-02-28 12:22:49.767
156.0, 26760.022552016086, -4504.301190889024, 16390.355395121027, -3404.4389014767294, 14987.314043916947, 6969.85506652058, -187500.02235174447, -187500.02235174447, -0.182, -0.776, -0.618, 192.0, 0.0, 0.0, 0.0, 0.0, 0.0, 0.0, 0.0, 0.0, 0.0, 1.677615769771438E9, 0.0, 2023-02-28 12:22:49.771
157.0, 26777.345153968952, -4502.714217032697, 16513.13352741403, -3404.5283084545504, 15051.21768131467, 7007.450700694407, -187500.02235174447, -187500.02235174447, -0.182, -0.776, -0.618, 192.0, 0.0, 0.0, 0.0, 0.0, 0.0, 0.0, 0.0, 0.0, 0.0, 1.6776157697765276E9, 0.0, 2023-02-28 12:22:49.776
158.0, 26753.540546124048, -4502.781272266063, 16394.781040523176, -3401.935506097735, 14989.593921851389, 6945.871644720036, -187500.02235174447, -187500.02235174447, -0.182, -0.776, -0.618, 192.0, 0.0, 0.0, 0.0, 0.0, 0.0, 0.0, 0.0, 0.0, 0.0, 1.6776157697804782E9, 0.0, 2023-02-28 12:22:49.780
159.0, 26734.809784270503, -4503.027141455072, 16259.620041801936, -3401.287305508531, 14920.929362884684, 6899.134147063988, -187500.02235174447, -187500.02235174447, -0.182, -0.778, -0.62, 192.0, 250.0, 80.0, 231.0, 176.0, 236.0, 160.0, 0.0, 0.0, 0.0, 1.67761576978354E9, 0.0, 2023-02-28 12:22:49.783
160.0, 26755.06046474701, -4503.183603666259, 16360.493464528736, -3403.254259020598, 14972.807761765453, 6954.7005837798815, -187500.02235174447, -187500.02235174447, -0.182, -0.778, -0.62, 192.0, 0.0, 0.0, 0.0, 0.0, 0.0, 0.0, 0.0, 0.0, 0.0, 1.6776157697874384E9, 0.0, 2023-02-28 12:22:49.787
161.0, 26782.97779357169, -4501.954257721217, 16512.12769891354, -3403.5671834429722, 15049.384838269334, 7010.267020495775, -187500.02235174447, -187500.02235174447, -0.182, -0.778, -0.62, 192.0, 0.0, 0.0, 0.0, 0.0, 0.0, 0.0, 0.0, 0.0, 0.0, 1.677615769791546E9, 0.0, 2023-02-28 12:22:49.791
162.0, 26756.66979034779, -4501.529574576566, 16429.4262444289, -3401.8460991199136, 15004.904866803274, 6960.5120373382615, -187500.02235174447, -187500.02235174447, -0.182, -0.778, -0.62, 192.0, 0.0, 0.0, 0.0, 0.0, 0.0, 0.0, 0.0, 0.0, 0.0, 1.6776157697955258E9, 0.0, 2023-02-28 12:22:49.795
163.0, 26730.987635968642, -4500.36728386489, 16270.214768673752, -3401.4437677197184, 14920.95171462914, 6904.1632895664325, -187500.02235174447, -187500.02235174447, -0.182, -0.778, -0.62, 192.0, 0.0, 0.0, 0.0, 0.0, 0.0, 0.0, 0.0, 0.0, 0.0, 1.677615769799539E9, 0.0, 2023-02-28 12:22:49.799
164.0, 26745.9633047537, -4501.440167598745, 16329.581001947046, -3404.125977054355, 14950.813645221431, 6948.062115676656, -187500.02235174447, -187500.02235174447, -0.182, -0.778, -0.62, 192.0, 0.0, 0.0, 0.0, 0.0, 0.0, 0.0, 0.0, 0.0, 0.0, 1.6776157698034725E9, 0.0, 2023-02-28 12:22:49.803
165.0, 26771.980735299676, -4503.69769378873, 16498.4931347958, -3406.3387997554305, 15036.130253807338, 7013.1056920415995, -187500.02235174447, -187500.02235174447, -0.182, -0.778, -0.62, 192.0, 0.0, 0.0, 0.0, 0.0, 0.0, 0.0, 0.0, 0.0, 0.0, 1.6776157698065286E9, 0.0, 2023-02-28 12:22:49.806
166.0, 26769.05265677603, -4501.954257721217, 16455.98011684181, -3404.8188811324694, 15015.790166353008, 6977.2981974241975, -187500.02235174447, -187500.02235174447, -0.182, -0.778, -0.62, 192.0, 0.0, 0.0, 0.0, 0.0, 0.0, 0.0, 0.0, 0.0, 0.0, 1.6776157698104627E9, 0.0, 2023-02-28 12:22:49.810
167.0, 26734.876839503868, -4505.575240322976, 16285.168085714351, -3404.0812735654445, 14927.701941454643, 6909.237135557787, -187500.02235174447, -187500.02235174447, -0.182, -0.778, -0.62, 192.0, 0.0, 0.0, 0.0, 0.0, 0.0, 0.0, 0.0, 0.0, 0.0, 1.6776157698154564E9, 0.0, 2023-02-28 12:22:49.815
168.0, 26736.217944171185, -4509.710313047208, 16305.776394102144, -3406.159985799788, 14935.726217714098, 6935.880414948513, -187500.02235174447, -187500.02235174447, -0.182, -0.778, -0.62, 192.0, 0.0, 0.0, 0.0, 0.0, 0.0, 0.0, 0.0, 0.0, 0.0, 1.6776157698204925E9, 0.0, 2023-02-28 12:22:49.820
169.0, 26766.90688930832, -4508.056283957516, 16480.857608420563, -3407.0540555780003, 15026.317837991457, 7009.819985606669, -187500.02235174447, -187500.02235174447, -0.182, -0.778, -0.624, 192.0, 250.0, 80.0, 231.0, 176.0, 236.0, 128.0, 0.0, 0.0, 0.0, 1.6776157698246665E9, 0.0, 2023-02-28 12:22:49.824
170.0, 26766.124578252387, -4504.882336244862, 16482.44458227689, -3404.617715432372, 15029.156509537283, 6995.045482521711, -187500.02235174447, -187500.02235174447, -0.182, -0.778, -0.624, 192.0, 0.0, 0.0, 0.0, 0.0, 0.0, 0.0, 0.0, 0.0, 0.0, 1.6776157698275485E9, 0.0, 2023-02-28 12:22:49.827
171.0, 26734.72037729268, -4505.485833345155, 16308.70447262579, -3402.986038087134, 14937.469653781613, 6922.312906064142, -187500.02235174447, -187500.02235174447, -0.182, -0.778, -0.624, 192.0, 0.0, 0.0, 0.0, 0.0, 0.0, 0.0, 0.0, 0.0, 0.0, 1.6776157698325062E9, 0.0, 2023-02-28 12:22:49.832
172.0, 26731.255856902106, -4506.134033934359, 16283.22348394674, -3403.8577561208913, 14922.583391974378, 6932.348839324575, -187500.02235174447, -187500.02235174447, -0.182, -0.778, -0.624, 192.0, 0.0, 0.0, 0.0, 0.0, 0.0, 0.0, 0.0, 0.0, 0.0, 1.6776157698355873E9, 0.0, 2023-02-28 12:22:49.835
173.0, 26766.459854419216, -4503.898859488829, 16452.69441040688, -3405.6235439328607, 15010.693968617199, 7007.785976861236, -187500.02235174447, -187500.02235174447, -0.182, -0.778, -0.624, 192.0, 0.0, 0.0, 0.0, 0.0, 0.0, 0.0, 0.0, 0.0, 0.0, 1.677615769838682E9, 0.0, 2023-02-28 12:22:49.838
174.0, 26780.653212148336, -4500.702560031719, 16500.393033074502, -3404.4389014767294, 15037.001971841095, 7008.992971061823, -187500.02235174447, -187500.02235174447, -0.182, -0.778, -0.624, 192.0, 0.0, 0.0, 0.0, 0.0, 0.0, 0.0, 0.0, 0.0, 0.0, 1.6776157698435488E9, 0.0, 2023-02-28 12:22:49.843
175.0, 26749.316066421994, -4501.283705387557, 16333.671371182369, -3402.4272444757516, 14948.980802176095, 6934.002868414267, -187500.02235174447, -187500.02235174447, -0.182, -0.778, -0.624, 192.0, 0.0, 0.0, 0.0, 0.0, 0.0, 0.0, 0.0, 0.0, 0.0, 1.677615769848566E9, 0.0, 2023-02-28 12:22:49.848
176.0, 26736.9108482493, -4502.960086221706, 16243.504434049659, -3403.969514843168, 14899.650502163233, 6911.114682092033, -187500.02235174447, -187500.02235174447, -0.182, -0.778, -0.624, 192.0, 0.0, 0.0, 0.0, 0.0, 0.0, 0.0, 0.0, 0.0, 0.0, 1.6776157698525872E9, 0.0, 2023-02-28 12:22:49.852
177.0, 26777.45691269123, -4501.171946665281, 16404.705215061334, -3406.9199451112686, 14984.117744459838, 6989.189325474421, -187500.02235174447, -187500.02235174447, -0.182, -0.778, -0.624, 192.0, 0.0, 0.0, 0.0, 0.0, 0.0, 0.0, 0.0, 0.0, 0.0, 1.67761576985562E9, 0.0, 2023-02-28 12:22:49.855
178.0, 26791.225587275698, -4502.669513543787, 16551.51147264379, -3406.9870003446345, 15060.672469219266, 7032.842282395635, -187500.02235174447, -187500.02235174447, -0.182, -0.778, -0.624, 192.0, 0.0, 0.0, 0.0, 0.0, 0.0, 0.0, 0.0, 0.0, 0.0, 1.6776157698585434E9, 0.0, 2023-02-28 12:22:49.858
179.0, 26748.399644899328, -4503.988266466649, 16380.788848494156, -3403.634238676338, 14976.026412967018, 6944.75405749727, -187500.02235174447, -187500.02235174447, -0.178, -0.774, -0.626, 192.0, 250.0, 112.0, 231.0, 208.0, 236.0, 112.0, 0.0, 0.0, 0.0, 1.6776157698626063E9, 0.0, 2023-02-28 12:22:49.862
180.0, 26719.588246296436, -4504.010618211105, 16202.556038207536, -3402.583706686939, 14885.345385711837, 6887.824164369603, -187500.02235174447, -187500.02235174447, -0.178, -0.774, -0.626, 192.0, 0.0, 0.0, 0.0, 0.0, 0.0, 0.0, 0.0, 0.0, 0.0, 1.6776157698666148E9, 0.0, 2023-02-28 12:22:49.866
181.0, 26754.099339735432, -4502.848327499429, 16360.515816273191, -3405.869413121869, 14966.213997151137, 6974.61598808956, -187500.02235174447, -187500.02235174447, -0.178, -0.774, -0.626, 192.0, 0.0, 0.0, 0.0, 0.0, 0.0, 0.0, 0.0, 0.0, 0.0, 1.677615769871601E9, 0.0, 2023-02-28 12:22:49.871
182.0, 26786.10703779543, -4501.060187943004, 16571.71744963139, -3406.4058549887964, 15076.341042082435, 7046.2086255799095, -187500.02235174447, -187500.02235174447, -0.178, -0.774, -0.626, 192.0, 0.0, 0.0, 0.0, 0.0, 0.0, 0.0, 0.0, 0.0, 0.0, 1.6776157698755891E9, 0.0, 2023-02-28 12:22:49.875
183.0, 26756.893307792343, -4501.551926321021, 16437.428168943905, -3403.7459973986147, 15007.542372649, 6965.42942111843, -187500.02235174447, -187500.02235174447, -0.178, -0.774, -0.626, 192.0, 0.0, 0.0, 0.0, 0.0, 0.0, 0.0, 0.0, 0.0, 0.0, 1.67761576987858E9, 0.0, 2023-02-28 12:22:49.878
184.0, 26732.105223191407, -4502.17777516577, 16211.027349356098, -3402.606058431394, 14888.251112491025, 6883.197353267355, -187500.02235174447, -187500.02235174447, -0.178, -0.774, -0.626, 192.0, 0.0, 0.0, 0.0, 0.0, 0.0, 0.0, 0.0, 0.0, 0.0, 1.6776157698826635E9, 0.0, 2023-02-28 12:22:49.882
185.0, 26767.286868964064, -4501.84249899894, 16315.99114131822, -3405.19886078821, 14940.509491027535, 6952.152484911977, -187500.02235174447, -187500.02235174447, -0.178, -0.774, -0.626, 192.0, 0.0, 0.0, 0.0, 0.0, 0.0, 0.0, 0.0, 0.0, 0.0, 1.6776157698866487E9, 0.0, 2023-02-28 12:22:49.886
186.0, 26797.037040834075, -4505.709350789708, 16562.37442044907, -3408.14929105631, 15064.874597176862, 7044.599299979127, -187500.02235174447, -187500.02235174447, -0.178, -0.774, -0.626, 192.0, 0.0, 0.0, 0.0, 0.0, 0.0, 0.0, 0.0, 0.0, 0.0, 1.6776157698905747E9, 0.0, 2023-02-28 12:22:49.890
187.0, 26763.10709275092, -4510.626734569876, 16488.5913120021, -3407.501090467106, 15027.144852536305, 6984.003720760789, -187500.02235174447, -187500.02235174447, -0.178, -0.774, -0.626, 192.0, 0.0, 0.0, 0.0, 0.0, 0.0, 0.0, 0.0, 0.0, 0.0, 1.6776157698945699E9, 0.0, 2023-02-28 12:22:49.894
188.0, 26727.67957778926, -4508.726836291175, 16233.490852533681, -3405.7576543995924, 14899.024653318484, 6884.359643979031, -187500.02235174447, -187500.02235174447, -0.178, -0.774, -0.626, 192.0, 0.0, 0.0, 0.0, 0.0, 0.0, 0.0, 0.0, 0.0, 0.0, 1.6776157698995717E9, 0.0, 2023-02-28 12:22:49.899
189.0, 26746.56680185399, -4508.03393221306, 16276.562664099058, -3408.2610497785868, 14920.191755317659, 6929.532519523206, -187500.02235174447, -187500.02235174447, -0.178, -0.774, -0.628, 192.0, 250.0, 112.0, 231.0, 208.0, 236.0, 96.0, 0.0, 0.0, 0.0, 1.677615769903683E9, 0.0, 2023-02-28 12:22:49.903
190.0, 26793.326651254494, -4507.631600812865, 16540.670876582968, -3410.5856312019387, 15052.4023237708, 7034.63042195206, -187500.02235174447, -187500.02235174447, -0.178, -0.774, -0.628, 192.0, 0.0, 0.0, 0.0, 0.0, 0.0, 0.0, 0.0, 0.0, 0.0, 1.6776157699076216E9, 0.0, 2023-02-28 12:22:49.907
191.0, 26774.662944634314, -4509.889127002851, 16531.506661356292, -3409.065712578978, 15047.931974879739, 7001.0133982912785, -187500.02235174447, -187500.02235174447, -0.178, -0.774, -0.628, 192.0, 0.0, 0.0, 0.0, 0.0, 0.0, 0.0, 0.0, 0.0, 0.0, 1.677615769911641E9, 0.0, 2023-02-28 12:22:49.911
192.0, 26730.20532491271, -4510.336161891957, 16268.359573883961, -3407.1434625558213, 14914.223839548093, 6891.668664415916, -187500.02235174447, -187500.02235174447, -0.178, -0.774, -0.628, 192.0, 0.0, 0.0, 0.0, 0.0, 0.0, 0.0, 0.0, 0.0, 0.0, 1.677615769914634E9, 0.0, 2023-02-28 12:22:49.914
193.0, 26737.559048838502, -4511.811377026007, 16244.59966952797, -3409.6245061903605, 14904.478478965579, 6907.650161701461, -187500.02235174447, -187500.02235174447, -0.178, -0.774, -0.628, 192.0, 0.0, 0.0, 0.0, 0.0, 0.0, 0.0, 0.0, 0.0, 0.0, 1.6776157699186385E9, 0.0, 2023-02-28 12:22:49.918
194.0, 26775.244089990152, -4514.918269505295, 16506.36094884407, -3412.8431573919247, 15036.711399163176, 7020.81704387868, -187500.02235174447, -187500.02235174447, -0.178, -0.774, -0.628, 192.0, 0.0, 0.0, 0.0, 0.0, 0.0, 0.0, 0.0, 0.0, 0.0, 1.677615769922636E9, 0.0, 2023-02-28 12:22:49.922
195.0, 26773.500653922638, -4516.348781150435, 16563.536711160745, -3411.412645746785, 15065.612204743888, 7018.403055477507, -187500.02235174447, -187500.02235174447, -0.178, -0.774, -0.628, 192.0, 0.0, 0.0, 0.0, 0.0, 0.0, 0.0, 0.0, 0.0, 0.0, 1.6776157699276621E9, 0.0, 2023-02-28 12:22:49.927
196.0, 26730.160621423798, -4516.572298594988, 16309.12915577044, -3408.0375323340336, 14937.581412503889, 6906.711388434338, -187500.02235174447, -187500.02235174447, -0.178, -0.774, -0.628, 192.0, 0.0, 0.0, 0.0, 0.0, 0.0, 0.0, 0.0, 0.0, 0.0, 1.6776157699316823E9, 0.0, 2023-02-28 12:22:49.931
197.0, 26728.014853956087, -4514.471234616189, 16220.616247727425, -3408.573974200961, 14894.263731749503, 6895.446109228863, -187500.02235174447, -187500.02235174447, -0.178, -0.774, -0.628, 192.0, 0.0, 0.0, 0.0, 0.0, 0.0, 0.0, 0.0, 0.0, 0.0, 1.6776157699347506E9, 0.0, 2023-02-28 12:22:49.934
198.0, 26774.01474404511, -4512.1913566817475, 16463.713820423345, -3411.8820323803466, 15019.20998325467, 7006.333113471641, -187500.02235174447, -187500.02235174447, -0.178, -0.774, -0.628, 192.0, 0.0, 0.0, 0.0, 0.0, 0.0, 0.0, 0.0, 0.0, 0.0, 1.677615769938842E9, 0.0, 2023-02-28 12:22:49.938
199.0, 26785.50354069514, -4511.4313973702665, 16582.893321859043, -3410.4962242241177, 15084.432373575257, 7029.467168982884, -187500.02235174447, -187500.02235174447, -0.182, -0.77, -0.624, 192.0, 250.0, 80.0, 231.0, 240.0, 236.0, 128.0, 0.0, 0.0, 0.0, 1.67761576994269E9, 0.0, 2023-02-28 12:22:49.942
200.0, 26744.39868264183, -4511.185528181259, 16353.18444409185, -3406.3387997554305, 14967.800971007464, 6920.413007785441, -187500.02235174447, -187500.02235174447, -0.182, -0.77, -0.624, 192.0, 0.0, 0.0, 0.0, 0.0, 0.0, 0.0, 0.0, 0.0, 0.0, 1.6776157699467647E9, 0.0, 2023-02-28 12:22:49.946
201.0, 26736.77673778257, -4508.9056502468175, 16204.657102186335, -3405.5341369550392, 14890.575693914378, 6883.2644085007205, -187500.02235174447, -187500.02235174447, -0.182, -0.77, -0.624, 192.0, 0.0, 0.0, 0.0, 0.0, 0.0, 0.0, 0.0, 0.0, 0.0, 1.6776157699506836E9, 0.0, 2023-02-28 12:22:49.950
202.0, 26778.462741191717, -4511.163176436803, 16414.607037855036, -3409.5350992125395, 14996.165334721249, 6986.3953574175075, -187500.02235174447, -187500.02235174447, -0.182, -0.77, -0.624, 192.0, 0.0, 0.0, 0.0, 0.0, 0.0, 0.0, 0.0, 0.0, 0.0, 1.677615769955661E9, 0.0, 2023-02-28 12:22:49.955
203.0, 26790.376220986396, -4515.521766605588, 16592.683385930468, -3410.5632794574835, 15087.405155587812, 7035.2339190523535, -187500.02235174447, -187500.02235174447, -0.182, -0.77, -0.624, 192.0, 0.0, 0.0, 0.0, 0.0, 0.0, 0.0, 0.0, 0.0, 0.0, 1.6776157699596915E9, 0.0, 2023-02-28 12:22:49.959
204.0, 26756.826252558978, -4512.928964248773, 16402.894723760455, -3405.936468355235, 14991.627930596822, 6936.215691115343, -187500.02235174447, -187500.02235174447, -0.182, -0.77, -0.624, 192.0, 0.0, 0.0, 0.0, 0.0, 0.0, 0.0, 0.0, 0.0, 0.0, 1.6776157699626532E9, 0.0, 2023-02-28 12:22:49.962
205.0, 26725.91378997729, -4513.443054371244, 16204.813564397522, -3405.9811718441456, 14888.117002024293, 6872.669681628905, -187500.02235174447, -187500.02235174447, -0.182, -0.77, -0.624, 192.0, 0.0, 0.0, 0.0, 0.0, 0.0, 0.0, 0.0, 0.0, 0.0, 1.6776157699667585E9, 0.0, 2023-02-28 12:22:49.966
206.0, 26768.180938742276, -4511.498452603633, 16365.589662264547, -3408.9092503677907, 14971.667822798232, 6964.75886878477, -187500.02235174447, -187500.02235174447, -0.182, -0.77, -0.624, 192.0, 0.0, 0.0, 0.0, 0.0, 0.0, 0.0, 0.0, 0.0, 0.0, 1.6776157699706569E9, 0.0, 2023-02-28 12:22:49.970
207.0, 26800.389802502374, -4512.325467148479, 16588.593016695144, -3410.6973899242153, 15085.393498586835, 7041.2241865663755, -187500.02235174447, -187500.02235174447, -0.182, -0.77, -0.624, 192.0, 0.0, 0.0, 0.0, 0.0, 0.0, 0.0, 0.0, 0.0, 0.0, 1.6776157699746854E9, 0.0, 2023-02-28 12:22:49.974
208.0, 26758.949668282232, -4515.0076764831165, 16453.141445295983, -3408.350456756408, 15014.314951218958, 6958.634490804016, -187500.02235174447, -187500.02235174447, -0.182, -0.77, -0.624, 192.0, 0.0, 0.0, 0.0, 0.0, 0.0, 0.0, 0.0, 0.0, 0.0, 1.6776157699786794E9, 0.0, 2023-02-28 12:22:49.978
209.0, 26721.868124230878, -4515.208842183214, 16214.558924980036, -3406.4282067332515, 14893.6155311603, 6872.781440351181, -187500.02235174447, -187500.02235174447, -0.17400000000000002, -0.774, -0.624, 192.0, 250.0, 144.0, 231.0, 208.0, 236.0, 128.0, 0.0, 0.0, 0.0, 1.6776157699837089E9, 0.0, 2023-02-28 12:22:49.983
210.0, 26746.969133254188, -4515.924098005784, 16317.712225641279, -3409.0210090900673, 14944.62221200731, 6938.942603938891, -187500.02235174447, -187500.02235174447, -0.17400000000000002, -0.774, -0.624, 192.0, 0.0, 0.0, 0.0, 0.0, 0.0, 0.0, 0.0, 0.0, 0.0, 1.6776157699876697E9, 0.0, 2023-02-28 12:22:49.987
211.0, 26792.38787798737, -4513.755978793619, 16572.18683626495, -3410.451520735207, 15073.658832747798, 7034.116331829588, -187500.02235174447, -187500.02235174447, -0.17400000000000002, -0.774, -0.624, 192.0, 0.0, 0.0, 0.0, 0.0, 0.0, 0.0, 0.0, 0.0, 0.0, 1.677615769990723E9, 0.0, 2023-02-28 12:22:49.990
212.0, 26770.86314807691, -4512.1913566817475, 16498.828410962633, -3407.858718378391, 15037.091378818915, 6977.946398013401, -187500.02235174447, -187500.02235174447, -0.17400000000000002, -0.774, -0.624, 192.0, 0.0, 0.0, 0.0, 0.0, 0.0, 0.0, 0.0, 0.0, 0.0, 1.6776157699946845E9, 0.0, 2023-02-28 12:22:49.994
213.0, 26722.985711453643, -4512.884260759862, 16238.967029925232, -3406.5623171999837, 14904.366720243303, 6877.788231109171, -187500.02235174447, -187500.02235174447, -0.17400000000000002, -0.774, -0.624, 192.0, 0.0, 0.0, 0.0, 0.0, 0.0, 0.0, 0.0, 0.0, 0.0, 1.6776157699986649E9, 0.0, 2023-02-28 12:22:49.998
214.0, 26741.224734929176, -4512.79485378204, 16278.08258272202, -3409.356285256897, 14924.170365830705, 6919.98832464079, -187500.02235174447, -187500.02235174447, -0.17400000000000002, -0.774, -0.624, 192.0, 0.0, 0.0, 0.0, 0.0, 0.0, 0.0, 0.0, 0.0, 0.0, 1.6776157700027096E9, 0.0, 2023-02-28 12:22:50.002
215.0, 26790.376220986396, -4513.241888671147, 16546.772902819266, -3411.479700980151, 15062.013573886583, 7028.684857926948, -187500.02235174447, -187500.02235174447, -0.17400000000000002, -0.774, -0.624, 192.0, 0.0, 0.0, 0.0, 0.0, 0.0, 0.0, 0.0, 0.0, 0.0, 1.6776157700066612E9, 0.0, 2023-02-28 12:22:50.006
216.0, 26794.623052432904, -4511.185528181259, 16541.721408572364, -3409.9821341016454, 15061.521835508567, 6999.493479668317, -187500.02235174447, -187500.02235174447, -0.17400000000000002, -0.774, -0.624, 192.0, 0.0, 0.0, 0.0, 0.0, 0.0, 0.0, 0.0, 0.0, 0.0, 1.6776157700108392E9, 0.0, 2023-02-28 12:22:50.010
217.0, 26738.96720873919, -4513.823034026985, 16275.154504198374, -3408.48456722314, 14922.42692976319, 6886.661873657928, -187500.02235174447, -187500.02235174447, -0.17400000000000002, -0.774, -0.624, 192.0, 0.0, 0.0, 0.0, 0.0, 0.0, 0.0, 0.0, 0.0, 0.0, 1.6776157700168233E9, 0.0, 2023-02-28 12:22:50.016
218.0, 26733.42397611427, -4518.338086406957, 16245.471387561725, -3411.0550178355, 14904.61258943231, 6900.31878952012, -187500.02235174447, -187500.02235174447, -0.17400000000000002, -0.774, -0.624, 192.0, 0.0, 0.0, 0.0, 0.0, 0.0, 0.0, 0.0, 0.0, 0.0, 1.67761577002071E9, 0.0, 2023-02-28 12:22:50.020
219.0, 26784.475360450193, -4515.410007883312, 16512.12769891354, -3413.312544025486, 15041.517024221066, 7016.301991498708, -187500.02235174447, -187500.02235174447, -0.176, -0.774, -0.62, 192.0, 250.0, 128.0, 231.0, 208.0, 236.0, 160.0, 0.0, 0.0, 0.0, 1.6776157700237236E9, 0.0, 2023-02-28 12:22:50.023
220.0, 26794.332479754983, -4512.839557270951, 16577.685365400954, -3412.1949568027208, 15073.994108914627, 7016.905488599002, -187500.02235174447, -187500.02235174447, -0.176, -0.774, -0.62, 192.0, 0.0, 0.0, 0.0, 0.0, 0.0, 0.0, 0.0, 0.0, 0.0, 1.6776157700268068E9, 0.0, 2023-02-28 12:22:50.026
221.0, 26746.790319298547, -4513.800682282529, 16320.483841953737, -3409.57980270145, 14942.141168372771, 6903.269219788221, -187500.02235174447, -187500.02235174447, -0.176, -0.774, -0.62, 192.0, 0.0, 0.0, 0.0, 0.0, 0.0, 0.0, 0.0, 0.0, 0.0, 1.6776157700307136E9, 0.0, 2023-02-28 12:22:50.030
222.0, 26733.736900536645, -4517.041685228549, 16224.907782662844, -3411.412645746785, 14890.061603791906, 6890.0146353262235, -187500.02235174447, -187500.02235174447, -0.176, -0.774, -0.62, 192.0, 0.0, 0.0, 0.0, 0.0, 0.0, 0.0, 0.0, 0.0, 0.0, 1.677615770036775E9, 0.0, 2023-02-28 12:22:50.036
223.0, 26778.10511328043, -4518.427493384778, 16468.944128625888, -3414.2736690370643, 15012.191535495704, 7004.38851170403, -187500.02235174447, -187500.02235174447, -0.176, -0.774, -0.62, 192.0, 0.0, 0.0, 0.0, 0.0, 0.0, 0.0, 0.0, 0.0, 0.0, 1.67761577003976E9, 0.0, 2023-02-28 12:22:50.039
224.0, 26795.450066977748, -4516.058208472516, 16596.95256912143, -3413.156081814299, 15075.98341417115, 7034.339849274141, -187500.02235174447, -187500.02235174447, -0.176, -0.774, -0.62, 192.0, 0.0, 0.0, 0.0, 0.0, 0.0, 0.0, 0.0, 0.0, 0.0, 1.6776157700437405E9, 0.0, 2023-02-28 12:22:50.043
225.0, 26742.834060529956, -4518.852176529429, 16367.154284376418, -3410.7867969020367, 14957.094485413372, 6924.816301443137, -187500.02235174447, -187500.02235174447, -0.176, -0.774, -0.62, 192.0, 0.0, 0.0, 0.0, 0.0, 0.0, 0.0, 0.0, 0.0, 0.0, 1.6776157700468435E9, 0.0, 2023-02-28 12:22:50.046
226.0, 26713.57562703796, -4524.171891709792, 16213.39663426836, -3412.5749364584613, 14879.355118197815, 6880.828068355092, -187500.02235174447, -187500.02235174447, -0.176, -0.774, -0.62, 192.0, 0.0, 0.0, 0.0, 0.0, 0.0, 0.0, 0.0, 0.0, 0.0, 1.677615770050728E9, 0.0, 2023-02-28 12:22:50.050
227.0, 26746.38798789835, -4527.65876384482, 16422.340741436572, -3416.911174882791, 14982.508418859055, 6985.322473683653, -187500.02235174447, -187500.02235174447, -0.176, -0.774, -0.62, 192.0, 0.0, 0.0, 0.0, 0.0, 0.0, 0.0, 0.0, 0.0, 0.0, 1.6776157700547912E9, 0.0, 2023-02-28 12:22:50.054
228.0, 26773.902985322835, -4526.3400109219565, 16607.68140645998, -3417.268802794076, 15077.391574071835, 7041.894738900035, -187500.02235174447, -187500.02235174447, -0.176, -0.774, -0.62, 192.0, 0.0, 0.0, 0.0, 0.0, 0.0, 0.0, 0.0, 0.0, 0.0, 1.6776157700587597E9, 0.0, 2023-02-28 12:22:50.058
229.0, 26752.33355192346, -4524.149539965337, 16419.412662912924, -3414.4748347371624, 14983.111915959349, 6941.870682462536, -187500.02235174447, -187500.02235174447, -0.176, -0.774, -0.62, 192.0, 0.0, 0.0, 0.0, 0.0, 0.0, 0.0, 0.0, 0.0, 0.0, 1.6776157700628045E9, 0.0, 2023-02-28 12:22:50.062
230.0, 26720.035281185545, -4527.055266744526, 16214.290704046573, -3413.4690062366735, 14877.231702474559, 6874.100193274045, -187500.02235174447, -187500.02235174447, -0.18, -0.774, -0.618, 192.0, 250.0, 96.0, 231.0, 208.0, 236.0, 176.0, 0.0, 0.0, 0.0, 1.6776157700668929E9, 0.0, 2023-02-28 12:22:50.066
231.0, 26739.05661571701, -4528.776351067585, 16369.255348355216, -3415.637125448838, 14958.05561042495, 6961.316700138653, -187500.02235174447, -187500.02235174447, -0.18, -0.774, -0.618, 192.0, 0.0, 0.0, 0.0, 0.0, 0.0, 0.0, 0.0, 0.0, 0.0, 1.677615770071797E9, 0.0, 2023-02-28 12:22:50.071
232.0, 26775.0205725456, -4527.5693568669985, 16597.75723192182, -3415.7935876600254, 15079.179713628258, 7039.301936543219, -187500.02235174447, -187500.02235174447, -0.18, -0.774, -0.618, 192.0, 0.0, 0.0, 0.0, 0.0, 0.0, 0.0, 0.0, 0.0, 0.0, 1.677615770075797E9, 0.0, 2023-02-28 12:22:50.075
233.0, 26740.934162251255, -4527.770522567096, 16465.524311724224, -3412.6643434362823, 15012.906791318273, 6958.18745591491, -187500.02235174447, -187500.02235174447, -0.18, -0.774, -0.618, 192.0, 0.0, 0.0, 0.0, 0.0, 0.0, 0.0, 0.0, 0.0, 0.0, 1.6776157700787787E9, 0.0, 2023-02-28 12:22:50.078
234.0, 26699.94106292022, -4526.94350802225, 16225.287762318583, -3411.7255701691593, 14890.575693914378, 6870.121582761, -187500.02235174447, -187500.02235174447, -0.18, -0.774, -0.618, 192.0, 0.0, 0.0, 0.0, 0.0, 0.0, 0.0, 0.0, 0.0, 0.0, 1.6776157700838037E9, 0.0, 2023-02-28 12:22:50.083
235.0, 26732.529906336058, -4525.580051610476, 16321.824946621055, -3413.7819306590477, 14941.962354417128, 6935.433380059408, -187500.02235174447, -187500.02235174447, -0.18, -0.774, -0.618, 192.0, 0.0, 0.0, 0.0, 0.0, 0.0, 0.0, 0.0, 0.0, 0.0, 1.6776157700877528E9, 0.0, 2023-02-28 12:22:50.087
236.0, 26774.01474404511, -4526.652935344331, 16579.89818810203, -3415.4359597487405, 15075.201103115214, 7035.122160330076, -187500.02235174447, -187500.02235174447, -0.18, -0.774, -0.618, 192.0, 0.0, 0.0, 0.0, 0.0, 0.0, 0.0, 0.0, 0.0, 0.0, 1.6776157700907588E9, 0.0, 2023-02-28 12:22:50.090
237.0, 26741.023569229077, -4528.2175574562025, 16513.915838469966, -3413.379599258852, 15042.567556210466, 6978.393432902508, -187500.02235174447, -187500.02235174447, -0.18, -0.774, -0.618, 192.0, 0.0, 0.0, 0.0, 0.0, 0.0, 0.0, 0.0, 0.0, 0.0, 1.677615770096786E9, 0.0, 2023-02-28 12:22:50.096
238.0, 26699.89635943131, -4525.714162077208, 16252.154559153863, -3410.965610857679, 14908.077109822883, 6876.26831248621, -187500.02235174447, -187500.02235174447, -0.18, -0.774, -0.618, 192.0, 0.0, 0.0, 0.0, 0.0, 0.0, 0.0, 0.0, 0.0, 0.0, 1.6776157700997984E9, 0.0, 2023-02-28 12:22:50.099
239.0, 26723.276284131563, -4525.4012376548335, 16282.731745568723, -3413.2454887921203, 14919.632961706277, 6917.9543158953575, -187500.02235174447, -187500.02235174447, -0.18, -0.774, -0.618, 192.0, 0.0, 0.0, 0.0, 0.0, 0.0, 0.0, 0.0, 0.0, 0.0, 1.677615770103861E9, 0.0, 2023-02-28 12:22:50.103
240.0, 26784.721229639203, -4526.407066155322, 16552.897280800018, -3416.7770644160587, 15056.895024406318, 7027.2543462818085, -187500.02235174447, -187500.02235174447, -0.18, -0.77, -0.62, 192.0, 250.0, 96.0, 231.0, 240.0, 236.0, 160.0, 0.0, 0.0, 0.0, 1.677615770106806E9, 0.0, 2023-02-28 12:22:50.106
241.0, 26772.204252744228, -4526.98821151116, 16553.81370232269, -3414.4971864816175, 15060.895986663818, 6996.3195319556635, -187500.02235174447, -187500.02235174447, -0.18, -0.77, -0.62, 192.0, 0.0, 0.0, 0.0, 0.0, 0.0, 0.0, 0.0, 0.0, 0.0, 1.6776157701107764E9, 0.0, 2023-02-28 12:22:50.110
242.0, 26704.590225766926, -4529.290441190057, 16286.106858981475, -3411.546756213517, 14923.924496641695, 6882.772670122704, -187500.02235174447, -187500.02235174447, -0.18, -0.77, -0.62, 192.0, 0.0, 0.0, 0.0, 0.0, 0.0, 0.0, 0.0, 0.0, 0.0, 1.6776157701147773E9, 0.0, 2023-02-28 12:22:50.114
243.0, 26695.068382628964, -4530.5644906240095, 16250.075846919519, -3413.066674836478, 14903.718519654098, 6894.306170261642, -187500.02235174447, -187500.02235174447, -0.18, -0.77, -0.62, 192.0, 0.0, 0.0, 0.0, 0.0, 0.0, 0.0, 0.0, 0.0, 0.0, 1.677615770118864E9, 0.0, 2023-02-28 12:22:50.118
244.0, 26740.688293062245, -4532.1514644803365, 16518.07326293865, -3416.955878371701, 15037.963096852673, 7012.613953663583, -187500.02235174447, -187500.02235174447, -0.18, -0.77, -0.62, 192.0, 0.0, 0.0, 0.0, 0.0, 0.0, 0.0, 0.0, 0.0, 0.0, 1.6776157701248171E9, 0.0, 2023-02-28 12:22:50.124
245.0, 26759.754331082622, -4531.793836569052, 16590.515266718303, -3416.4417882492294, 15077.592739771932, 7014.111520542088, -187500.02235174447, -187500.02235174447, -0.18, -0.77, -0.62, 192.0, 0.0, 0.0, 0.0, 0.0, 0.0, 0.0, 0.0, 0.0, 0.0, 1.6776157701278508E9, 0.0, 2023-02-28 12:22:50.127
246.0, 26727.009025455598, -4529.3351446789675, 16333.581964204546, -3413.8489858924136, 14947.460883553134, 6898.038911585679, -187500.02235174447, -187500.02235174447, -0.18, -0.77, -0.62, 192.0, 0.0, 0.0, 0.0, 0.0, 0.0, 0.0, 0.0, 0.0, 0.0, 1.6776157701318357E9, 0.0, 2023-02-28 12:22:50.131
247.0, 26699.42697279775, -4533.425513914289, 16230.965105410232, -3415.4359597487405, 14895.157801527715, 6880.828068355092, -187500.02235174447, -187500.02235174447, -0.18, -0.77, -0.62, 192.0, 0.0, 0.0, 0.0, 0.0, 0.0, 0.0, 0.0, 0.0, 0.0, 1.677615770134884E9, 0.0, 2023-02-28 12:22:50.134
248.0, 26735.659150559804, -4532.352630180434, 16473.68269845041, -3417.872299894369, 15017.712416376164, 6996.520697655761, -187500.02235174447, -187500.02235174447, -0.18, -0.77, -0.62, 192.0, 0.0, 0.0, 0.0, 0.0, 0.0, 0.0, 0.0, 0.0, 0.0, 1.6776157701388514E9, 0.0, 2023-02-28 12:22:50.138
249.0, 26755.216926958197, -4525.647106843842, 16607.882572160073, -3415.994753360123, 15089.372109099879, 7030.182424805454, -187500.02235174447, -187500.02235174447, -0.18, -0.77, -0.62, 192.0, 0.0, 0.0, 0.0, 0.0, 0.0, 0.0, 0.0, 0.0, 0.0, 1.6776157701429424E9, 0.0, 2023-02-28 12:22:50.142
250.0, 26716.302539861506, -4521.109702719415, 16380.587682794057, -3411.703218424704, 14974.372383877324, 6923.139920608988, -187500.02235174447, -187500.02235174447, -0.182, -0.77, -0.618, 192.0, 250.0, 80.0, 231.0, 240.0, 236.0, 176.0, 0.0, 0.0, 0.0, 1.6776157701468408E9, 0.0, 2023-02-28 12:22:50.146
251.0, 26698.130571619342, -4522.182586453269, 16219.856288415944, -3412.1502533138105, 14890.486286936557, 6877.721175875804, -187500.02235174447, -187500.02235174447, -0.182, -0.77, -0.618, 192.0, 0.0, 0.0, 0.0, 0.0, 0.0, 0.0, 0.0, 0.0, 0.0, 1.677615770150947E9, 0.0, 2023-02-28 12:22:50.150
252.0, 26746.835022787458, -4521.959069008716, 16423.458328659337, -3415.4359597487405, 14994.935988776208, 6980.203924203387, -187500.02235174447, -187500.02235174447, -0.182, -0.77, -0.618, 192.0, 0.0, 0.0, 0.0, 0.0, 0.0, 0.0, 0.0, 0.0, 0.0, 1.6776157701548684E9, 0.0, 2023-02-28 12:22:50.154
253.0, 26769.365581198406, -4524.641278343353, 16614.364578052115, -3416.1512155713103, 15092.054318434515, 7037.424390008973, -187500.02235174447, -187500.02235174447, -0.182, -0.77, -0.618, 192.0, 0.0, 0.0, 0.0, 0.0, 0.0, 0.0, 0.0, 0.0, 0.0, 1.6776157701578665E9, 0.0, 2023-02-28 12:22:50.157
254.0, 26727.500763833617, -4524.842444043451, 16431.39319794097, -3412.5972882029164, 14998.624026611333, 6940.127246395022, -187500.02235174447, -187500.02235174447, -0.182, -0.77, -0.618, 192.0, 0.0, 0.0, 0.0, 0.0, 0.0, 0.0, 0.0, 0.0, 0.0, 1.677615770161874E9, 0.0, 2023-02-28 12:22:50.161
255.0, 26696.27537682955, -4524.194243454247, 16220.459785516237, -3410.7867969020367, 14891.603874159322, 6870.903893816936, -187500.02235174447, -187500.02235174447, -0.182, -0.77, -0.618, 192.0, 0.0, 0.0, 0.0, 0.0, 0.0, 0.0, 0.0, 0.0, 0.0, 1.6776157701669369E9, 0.0, 2023-02-28 12:22:50.166
0.0, 26726.986673711144, -4525.580051610476, 16373.032793168164, -3413.58076495895, 14967.845674496375, 6956.153447169477, -187500.02235174447, -187500.02235174447, -0.182, -0.77, -0.618, 192.0, 0.0, 0.0, 0.0, 0.0, 0.0, 0.0, 0.0, 0.0, 0.0, 1.6776157701709304E9, 0.0, 2023-02-28 12:22:50.170
1.0, 26757.452101403727, -4529.4469034012445, 16606.027377370283, -3414.9442213707234, 15088.455687577212, 7035.34567777463, -187500.02235174447, -187500.02235174447, -0.182, -0.77, -0.618, 192.0, 0.0, 0.0, 0.0, 0.0, 0.0, 0.0, 0.0, 0.0, 0.0, 1.6776157701748686E9, 0.0, 2023-02-28 12:22:50.174
2.0, 26727.120784177874, -4531.100932490937, 16480.49998050928, -3412.1949568027208, 15025.267306002059, 6954.5217698242395, -187500.02235174447, -187500.02235174447, -0.182, -0.77, -0.618, 192.0, 0.0, 0.0, 0.0, 0.0, 0.0, 0.0, 0.0, 0.0, 0.0, 1.677615770178892E9, 0.0, 2023-02-28 12:22:50.178
3.0, 26683.400772023295, -4533.291403447557, 16237.000076413166, -3411.6361631913383, 14899.963426585608, 6861.918492545902, -187500.02235174447, -187500.02235174447, -0.182, -0.77, -0.618, 192.0, 0.0, 0.0, 0.0, 0.0, 0.0, 0.0, 0.0, 0.0, 0.0, 1.6776157701829262E9, 0.0, 2023-02-28 12:22:50.182
4.0, 26706.825400212456, -4534.811322070518, 16327.144661801418, -3414.7207039261707, 14946.678572497198, 6925.1739293544215, -187500.02235174447, -187500.02235174447, -0.186, -0.772, -0.622, 192.0, 250.0, 48.0, 231.0, 224.0, 236.0, 144.0, 0.0, 0.0, 0.0, 1.6776157701859093E9, 0.0, 2023-02-28 12:22:50.185
5.0, 26749.09254897744, -4534.297231948046, 16588.52596146178, -3417.4029132608075, 15082.241902618636, 7026.874366626069, -187500.02235174447, -187500.02235174447, -0.186, -0.772, -0.622, 192.0, 0.0, 0.0, 0.0, 0.0, 0.0, 0.0, 0.0, 0.0, 0.0, 1.677615770189882E9, 0.0, 2023-02-28 12:22:50.189
6.0, 26737.894325005334, -4532.486740647166, 16528.198603176905, -3414.6312969483492, 15055.50921625009, 6974.347767156097, -187500.02235174447, -187500.02235174447, -0.186, -0.772, -0.622, 192.0, 0.0, 0.0, 0.0, 0.0, 0.0, 0.0, 0.0, 0.0, 0.0, 1.6776157701950135E9, 0.0, 2023-02-28 12:22:50.195
7.0, 26691.268586071565, -4530.855063301929, 16262.190492414296, -3411.747921913615, 14920.683493695677, 6868.199332737843, -187500.02235174447, -187500.02235174447, -0.186, -0.772, -0.622, 192.0, 0.0, 0.0, 0.0, 0.0, 0.0, 0.0, 0.0, 0.0, 0.0, 1.677615770198975E9, 0.0, 2023-02-28 12:22:50.198
8.0, 26693.36965005036, -4532.509092391621, 16284.676347336335, -3414.5865934594385, 14933.401636290746, 6907.359589023542, -187500.02235174447, -187500.02235174447, -0.186, -0.772, -0.622, 192.0, 0.0, 0.0, 0.0, 0.0, 0.0, 0.0, 0.0, 0.0, 0.0, 1.677615770202953E9, 0.0, 2023-02-28 12:22:50.202
9.0, 26742.09645296293, -4531.391505168856, 16557.926423302462, -3417.939355127735, 15073.748239725619, 7020.526471200761, -187500.02235174447, -187500.02235174447, -0.186, -0.772, -0.622, 192.0, 0.0, 0.0, 0.0, 0.0, 0.0, 0.0, 0.0, 0.0, 0.0, 1.677615770206926E9, 0.0, 2023-02-28 12:22:50.206
10.0, 26742.25291517412, -4530.542138879555, 16567.962356562897, -3416.5982504604162, 15079.291472350536, 6994.933723799435, -187500.02235174447, -187500.02235174447, -0.186, -0.772, -0.622, 192.0, 0.0, 0.0, 0.0, 0.0, 0.0, 0.0, 0.0, 0.0, 0.0, 1.6776157702109127E9, 0.0, 2023-02-28 12:22:50.210
11.0, 26695.783638451536, -4533.291403447557, 16298.489725409714, -3414.988924859634, 14937.71552297062, 6876.760050864226, -187500.02235174447, -187500.02235174447, -0.186, -0.772, -0.622, 192.0, 0.0, 0.0, 0.0, 0.0, 0.0, 0.0, 0.0, 0.0, 0.0, 1.6776157702139013E9, 0.0, 2023-02-28 12:22:50.213
12.0, 26688.161693592276, -4539.32637445049, 16255.909652222355, -3418.3640382723856, 14912.592162202856, 6882.638559655972, -187500.02235174447, -187500.02235174447, -0.186, -0.772, -0.622, 192.0, 0.0, 0.0, 0.0, 0.0, 0.0, 0.0, 0.0, 0.0, 0.0, 1.6776157702179585E9, 0.0, 2023-02-28 12:22:50.217
13.0, 26743.795185541534, -4541.2486244736465, 16521.001341462295, -3421.5603377294947, 15047.306126034991, 7000.499308168806, -187500.02235174447, -187500.02235174447, -0.186, -0.772, -0.622, 192.0, 0.0, 0.0, 0.0, 0.0, 0.0, 0.0, 0.0, 0.0, 0.0, 1.677615770222996E9, 0.0, 2023-02-28 12:22:50.222
14.0, 26735.390929626337, -4544.914310564317, 16600.52884823428, -3421.58268947395, 15089.036832933049, 7004.164994259477, -187500.02235174447, -187500.02235174447, -0.188, -0.768, -0.618, 192.0, 250.0, 32.0, 232.0, 0.0, 236.0, 176.0, 0.0, 0.0, 0.0, 1.67761577022693E9, 0.0, 2023-02-28 12:22:50.226
15.0, 26677.7457806761, -4547.037726287571, 16343.32732478706, -3418.7887214170364, 14959.061438925439, 6886.706577146838, -187500.02235174447, -187500.02235174447, -0.188, -0.768, -0.618, 192.0, 0.0, 0.0, 0.0, 0.0, 0.0, 0.0, 0.0, 0.0, 0.0, 1.6776157702309644E9, 0.0, 2023-02-28 12:22:50.230
16.0, 26669.028600338534, -4546.389525698367, 16233.222631600218, -3419.6827911952487, 14903.316188253903, 6865.807696081126, -187500.02235174447, -187500.02235174447, -0.188, -0.768, -0.618, 192.0, 0.0, 0.0, 0.0, 0.0, 0.0, 0.0, 0.0, 0.0, 0.0, 1.6776157702350605E9, 0.0, 2023-02-28 12:22:50.235
17.0, 26714.38028983835, -4547.037726287571, 16474.93439613991, -3422.7002766967153, 15027.256611258581, 6976.694700323904, -187500.02235174447, -187500.02235174447, -0.188, -0.768, -0.618, 192.0, 0.0, 0.0, 0.0, 0.0, 0.0, 0.0, 0.0, 0.0, 0.0, 1.6776157702380133E9, 0.0, 2023-02-28 12:22:50.238
18.0, 26730.451194101715, -4548.669403632808, 16619.036092643273, -3421.8509104074137, 15101.03971970555, 7011.831642607647, -187500.02235174447, -187500.02235174447, -0.188, -0.768, -0.618, 192.0, 0.0, 0.0, 0.0, 0.0, 0.0, 0.0, 0.0, 0.0, 0.0, 1.6776157702420948E9, 0.0, 2023-02-28 12:22:50.242
19.0, 26701.416278054272, -4548.557644910532, 16393.976377722785, -3417.8275964054583, 14986.464677627646, 6904.029179099701, -187500.02235174447, -187500.02235174447, -0.188, -0.768, -0.618, 192.0, 0.0, 0.0, 0.0, 0.0, 0.0, 0.0, 0.0, 0.0, 0.0, 1.6776157702479887E9, 0.0, 2023-02-28 12:22:50.247
20.0, 26675.600013208394, -4547.618871643409, 16224.63956172938, -3417.4029132608075, 14900.388109730258, 6858.208102966321, -187500.02235174447, -187500.02235174447, -0.188, -0.768, -0.618, 192.0, 0.0, 0.0, 0.0, 0.0, 0.0, 0.0, 0.0, 0.0, 0.0, 1.677615770252031E9, 0.0, 2023-02-28 12:22:50.252
21.0, 26701.773905965558, -4547.730630365686, 16425.49233740477, -3420.9121371402907, 15001.887381301807, 6961.875493750035, -187500.02235174447, -187500.02235174447, -0.188, -0.768, -0.618, 192.0, 0.0, 0.0, 0.0, 0.0, 0.0, 0.0, 0.0, 0.0, 0.0, 1.6776157702560263E9, 0.0, 2023-02-28 12:22:50.256
22.0, 26728.752461523112, -4548.959976310727, 16621.159508366527, -3421.470930751673, 15104.615998818399, 7024.393322991529, -187500.02235174447, -187500.02235174447, -0.188, -0.768, -0.618, 192.0, 0.0, 0.0, 0.0, 0.0, 0.0, 0.0, 0.0, 0.0, 0.0, 1.6776157702589593E9, 0.0, 2023-02-28 12:22:50.258
23.0, 26686.261795313574, -4552.022165301105, 16442.479663190803, -3418.7216661836705, 15013.845564585396, 6925.03981888769, -187500.02235174447, -187500.02235174447, -0.188, -0.768, -0.618, 192.0, 0.0, 0.0, 0.0, 0.0, 0.0, 0.0, 0.0, 0.0, 0.0, 1.6776157702629895E9, 0.0, 2023-02-28 12:22:50.262
24.0, 26656.489271699105, -4553.475028690699, 16227.634695486391, -3417.604078960905, 14901.192772530649, 6852.396649407941, -187500.02235174447, -187500.02235174447, -0.18, -0.772, -0.624, 192.0, 250.0, 96.0, 231.0, 224.0, 236.0, 128.0, 0.0, 0.0, 0.0, 1.6776157702660663E9, 0.0, 2023-02-28 12:22:50.266
25.0, 26694.084905872933, -4555.777258369596, 16373.971566435286, -3420.3309917844526, 14973.455962354657, 6936.394505070985, -187500.02235174447, -187500.02235174447, -0.18, -0.772, -0.624, 192.0, 0.0, 0.0, 0.0, 0.0, 0.0, 0.0, 0.0, 0.0, 0.0, 1.6776157702699869E9, 0.0, 2023-02-28 12:22:50.269
26.0, 26730.987635968642, -4556.559569425532, 16611.637665228565, -3422.499110996617, 15095.004748702617, 7020.370008989574, -187500.02235174447, -187500.02235174447, -0.18, -0.772, -0.624, 192.0, 0.0, 0.0, 0.0, 0.0, 0.0, 0.0, 0.0, 0.0, 0.0, 1.6776157702739751E9, 0.0, 2023-02-28 12:22:50.273
27.0, 26707.96533917968, -4554.525560680099, 16489.619492247046, -3418.5652039724832, 15035.392646240312, 6944.396429585985, -187500.02235174447, -187500.02235174447, -0.18, -0.772, -0.624, 192.0, 0.0, 0.0, 0.0, 0.0, 0.0, 0.0, 0.0, 0.0, 0.0, 1.677615770277985E9, 0.0, 2023-02-28 12:22:50.277
28.0, 26654.18704202021, -4553.877360090895, 16239.726989236713, -3417.0452853495226, 14907.80888888942, 6850.295585429142, -187500.02235174447, -187500.02235174447, -0.18, -0.772, -0.624, 192.0, 0.0, 0.0, 0.0, 0.0, 0.0, 0.0, 0.0, 0.0, 0.0, 1.677615770283057E9, 0.0, 2023-02-28 12:22:50.283
29.0, 26692.52028376106, -4553.296214735057, 16323.344865244017, -3419.5039772396062, 14950.366610332325, 6908.834804157592, -187500.02235174447, -187500.02235174447, -0.18, -0.772, -0.624, 192.0, 0.0, 0.0, 0.0, 0.0, 0.0, 0.0, 0.0, 0.0, 0.0, 1.6776157702870097E9, 0.0, 2023-02-28 12:22:50.287
30.0, 26740.934162251255, -4552.245682745657, 16587.27426377228, -3421.3591720293966, 15088.098059665926, 7009.708226884392, -187500.02235174447, -187500.02235174447, -0.18, -0.772, -0.624, 192.0, 0.0, 0.0, 0.0, 0.0, 0.0, 0.0, 0.0, 0.0, 0.0, 1.677615770291E9, 0.0, 2023-02-28 12:22:50.291
31.0, 26731.658188302303, -4550.1669705113145, 16535.08294046914, -3417.7158376831817, 15065.12046636587, 6956.913406480958, -187500.02235174447, -187500.02235174447, -0.18, -0.772, -0.624, 192.0, 0.0, 0.0, 0.0, 0.0, 0.0, 0.0, 0.0, 0.0, 0.0, 1.6776157702940598E9, 0.0, 2023-02-28 12:22:50.294
32.0, 26690.419219782263, -4549.742287366663, 16264.9397569823, -3413.8936893813243, 14929.043046121962, 6847.345155161042, -187500.02235174447, -187500.02235174447, -0.18, -0.772, -0.624, 192.0, 0.0, 0.0, 0.0, 0.0, 0.0, 0.0, 0.0, 0.0, 0.0, 1.6776157702980435E9, 0.0, 2023-02-28 12:22:50.298
33.0, 26693.660222728282, -4550.882226333884, 16279.356632155972, -3416.5088434825952, 14938.251964837547, 6884.2031817678435, -187500.02235174447, -187500.02235174447, -0.18, -0.772, -0.624, 192.0, 0.0, 0.0, 0.0, 0.0, 0.0, 0.0, 0.0, 0.0, 0.0, 1.677615770302065E9, 0.0, 2023-02-28 12:22:50.302
34.0, 26723.544505065027, -4546.4118774428225, 16552.38319067755, -3417.224099305165, 15081.236074118147, 6999.784052346236, -187500.02235174447, -187500.02235174447, -0.178, -0.78, -0.63, 192.0, 250.0, 112.0, 231.0, 160.0, 236.0, 80.0, 0.0, 0.0, 0.0, 1.6776157703060644E9, 0.0, 2023-02-28 12:22:50.306
35.0, 26716.660167772792, -4541.025107029093, 16569.41521995249, -3413.7595789145926, 15093.551885313022, 6977.611121846571, -187500.02235174447, -187500.02235174447, -0.178, -0.78, -0.63, 192.0, 0.0, 0.0, 0.0, 0.0, 0.0, 0.0, 0.0, 0.0, 0.0, 1.6776157703110075E9, 0.0, 2023-02-28 12:22:50.311
36.0, 26685.211263324174, -4542.634432629876, 16297.908580053876, -3410.809148646492, 14955.932194701696, 6860.264463456209, -187500.02235174447, -187500.02235174447, -0.178, -0.78, -0.63, 192.0, 0.0, 0.0, 0.0, 0.0, 0.0, 0.0, 0.0, 0.0, 0.0, 1.6776157703150373E9, 0.0, 2023-02-28 12:22:50.315
37.0, 26680.696210944203, -4548.557644910532, 16248.131245151908, -3413.379599258852, 14926.673761209699, 6868.065222271111, -187500.02235174447, -187500.02235174447, -0.178, -0.78, -0.63, 192.0, 0.0, 0.0, 0.0, 0.0, 0.0, 0.0, 0.0, 0.0, 0.0, 1.6776157703190813E9, 0.0, 2023-02-28 12:22:50.319
38.0, 26730.63000805736, -4548.848217588451, 16513.49115532531, -3416.553546971506, 15058.16907384027, 6988.094089996111, -187500.02235174447, -187500.02235174447, -0.178, -0.78, -0.63, 192.0, 0.0, 0.0, 0.0, 0.0, 0.0, 0.0, 0.0, 0.0, 0.0, 1.677615770322064E9, 0.0, 2023-02-28 12:22:50.322
39.0, 26766.30339220803, -4548.04355478806, 16599.455964500423, -3415.6594771932937, 15102.22436216168, 6995.000779032801, -187500.02235174447, -187500.02235174447, -0.178, -0.78, -0.63, 192.0, 0.0, 0.0, 0.0, 0.0, 0.0, 0.0, 0.0, 0.0, 0.0, 1.6776157703260305E9, 0.0, 2023-02-28 12:22:50.326
40.0, 26725.66792078828, -4548.334127465979, 16344.020228865174, -3412.329067269453, 14970.259662897548, 6874.815449096614, -187500.02235174447, -187500.02235174447, -0.178, -0.78, -0.63, 192.0, 0.0, 0.0, 0.0, 0.0, 0.0, 0.0, 0.0, 0.0, 0.0, 1.677615770332055E9, 0.0, 2023-02-28 12:22:50.332
41.0, 26718.269493373573, -4553.318566479512, 16228.618172242424, -3413.6031167034052, 14909.462917979112, 6850.206178451322, -187500.02235174447, -187500.02235174447, -0.178, -0.78, -0.63, 192.0, 0.0, 0.0, 0.0, 0.0, 0.0, 0.0, 0.0, 0.0, 0.0, 1.6776157703360584E9, 0.0, 2023-02-28 12:22:50.336
42.0, 26746.276229176074, -4552.133924023381, 16465.948994868875, -3415.77123591557, 15029.40237872629, 6970.682081065426, -187500.02235174447, -187500.02235174447, -0.178, -0.78, -0.63, 192.0, 0.0, 0.0, 0.0, 0.0, 0.0, 0.0, 0.0, 0.0, 0.0, 1.677615770340108E9, 0.0, 2023-02-28 12:22:50.340
43.0, 26750.076025733477, -4546.5906913984645, 16616.130365864083, -3415.324201026464, 15108.572257586988, 7009.596468162116, -187500.02235174447, -187500.02235174447, -0.178, -0.78, -0.63, 192.0, 0.0, 0.0, 0.0, 0.0, 0.0, 0.0, 0.0, 0.0, 0.0, 1.6776157703431072E9, 0.0, 2023-02-28 12:22:50.343
44.0, 26733.513383092093, -4548.04355478806, 16394.73633703427, -3413.1337300698438, 14996.724128332631, 6898.485946474785, -187500.02235174447, -187500.02235174447, -0.178, -0.776, -0.624, 192.0, 250.0, 112.0, 231.0, 192.0, 236.0, 128.0, 0.0, 0.0, 0.0, 1.6776157703470502E9, 0.0, 2023-02-28 12:22:50.347
45.0, 26721.890475975335, -4550.1669705113145, 16222.382035539395, -3413.9830963591453, 14905.439603977156, 6851.055544740623, -187500.02235174447, -187500.02235174447, -0.178, -0.776, -0.624, 192.0, 0.0, 0.0, 0.0, 0.0, 0.0, 0.0, 0.0, 0.0, 0.0, 1.6776157703500836E9, 0.0, 2023-02-28 12:22:50.350
46.0, 26712.23452237064, -4544.869607075406, 16420.843174558064, -3417.0676370939777, 15007.832945326918, 6950.319641866642, -187500.02235174447, -187500.02235174447, -0.178, -0.776, -0.624, 192.0, 0.0, 0.0, 0.0, 0.0, 0.0, 0.0, 0.0, 0.0, 0.0, 1.6776157703540456E9, 0.0, 2023-02-28 12:22:50.354
47.0, 26735.659150559804, -4544.08729601947, 16623.037054900775, -3417.2017475607095, 15113.869621022895, 7012.993933319322, -187500.02235174447, -187500.02235174447, -0.178, -0.776, -0.624, 192.0, 0.0, 0.0, 0.0, 0.0, 0.0, 0.0, 0.0, 0.0, 0.0, 1.677615770358055E9, 0.0, 2023-02-28 12:22:50.358
48.0, 26722.1586969088, -4544.4225721863, 16446.771198126222, -3412.9102126252906, 15025.043788557505, 6917.999019384268, -187500.02235174447, -187500.02235174447, -0.178, -0.776, -0.624, 192.0, 0.0, 0.0, 0.0, 0.0, 0.0, 0.0, 0.0, 0.0, 0.0, 1.677615770362116E9, 0.0, 2023-02-28 12:22:50.362
49.0, 26664.491196214105, -4541.226272729191, 16227.008846641642, -3411.5914597024275, 14909.217048790104, 6842.1148469585005, -187500.02235174447, -187500.02235174447, -0.178, -0.776, -0.624, 192.0, 0.0, 0.0, 0.0, 0.0, 0.0, 0.0, 0.0, 0.0, 0.0, 1.677615770367139E9, 0.0, 2023-02-28 12:22:50.367
50.0, 26725.958493466198, -4540.153388995336, 16370.439990811348, -3414.8548143929024, 14980.496761858078, 6920.457711274352, -187500.02235174447, -187500.02235174447, -0.178, -0.776, -0.624, 192.0, 0.0, 0.0, 0.0, 0.0, 0.0, 0.0, 0.0, 0.0, 0.0, 1.6776157703710911E9, 0.0, 2023-02-28 12:22:50.371
51.0, 26853.966933961743, -4544.80255184204, 16613.269342573803, -3417.604078960905, 15101.598513316932, 7006.042540793722, -187500.02235174447, -187500.02235174447, -0.178, -0.776, -0.624, 192.0, 0.0, 0.0, 0.0, 0.0, 0.0, 0.0, 0.0, 0.0, 0.0, 1.677615770374083E9, 0.0, 2023-02-28 12:22:50.374
52.0, 26826.563695259538, -4546.724801865197, 16499.096631896096, -3414.094855081422, 15045.585041711933, 6934.89693819248, -187500.02235174447, -187500.02235174447, -0.178, -0.776, -0.624, 192.0, 0.0, 0.0, 0.0, 0.0, 0.0, 0.0, 0.0, 0.0, 0.0, 1.6776157703781075E9, 0.0, 2023-02-28 12:22:50.378
53.0, 26689.1004668594, -4538.856987816928, 16242.632716015902, -3409.9821341016454, 14920.191755317659, 6841.77957079167, -187500.02235174447, -187500.02235174447, -0.178, -0.776, -0.624, 192.0, 0.0, 0.0, 0.0, 0.0, 0.0, 0.0, 0.0, 0.0, 0.0, 1.6776157703821962E9, 0.0, 2023-02-28 12:22:50.382
54.0, 26681.769094678057, -4531.950298780239, 16319.36625473097, -3411.5914597024275, 14959.240252881082, 6903.917420377425, -187500.02235174447, -187500.02235174447, -0.176, -0.776, -0.628, 192.0, 250.0, 128.0, 231.0, 192.0, 236.0, 96.0, 0.0, 0.0, 0.0, 1.6776157703861935E9, 0.0, 2023-02-28 12:22:50.386
55.0, 26757.876784548378, -4529.603365612432, 16589.107106817617, -3414.0725033369667, 15093.663644035298, 7005.081415782144, -187500.02235174447, -187500.02235174447, -0.176, -0.776, -0.628, 192.0, 0.0, 0.0, 0.0, 0.0, 0.0, 0.0, 0.0, 0.0, 0.0, 1.6776157703901448E9, 0.0, 2023-02-28 12:22:50.390
56.0, 26859.063131697552, -4534.587804625965, 16546.83995805263, -3414.8101109039917, 15063.958175654196, 6949.023240688234, -187500.02235174447, -187500.02235174447, -0.176, -0.776, -0.628, 192.0, 0.0, 0.0, 0.0, 0.0, 0.0, 0.0, 0.0, 0.0, 0.0, 1.6776157703951037E9, 0.0, 2023-02-28 12:22:50.395
57.0, 26895.719992604256, -4536.442999415755, 16274.014565231153, -3411.7255701691593, 14924.326828041892, 6841.0643149691, -187500.02235174447, -187500.02235174447, -0.176, -0.776, -0.628, 192.0, 0.0, 0.0, 0.0, 0.0, 0.0, 0.0, 0.0, 0.0, 0.0, 1.6776157703991644E9, 0.0, 2023-02-28 12:22:50.399
58.0, 26757.988543270654, -4530.89976679084, 16280.630681589924, -3410.742093413126, 14934.943906658162, 6873.116716518011, -187500.02235174447, -187500.02235174447, -0.176, -0.776, -0.628, 192.0, 0.0, 0.0, 0.0, 0.0, 0.0, 0.0, 0.0, 0.0, 0.0, 1.6776157704021754E9, 0.0, 2023-02-28 12:22:50.402
59.0, 26732.105223191407, -4523.3448771649455, 16552.18202497745, -3411.680866680249, 15075.335213581946, 6986.373005673052, -187500.02235174447, -187500.02235174447, -0.176, -0.776, -0.628, 192.0, 0.0, 0.0, 0.0, 0.0, 0.0, 0.0, 0.0, 0.0, 0.0, 1.6776157704061563E9, 0.0, 2023-02-28 12:22:50.406
60.0, 26817.243017821675, -4519.723894563186, 16578.42297296798, -3410.5632794574835, 15083.493600308133, 6964.781220529226, -187500.02235174447, -187500.02235174447, -0.176, -0.776, -0.628, 192.0, 0.0, 0.0, 0.0, 0.0, 0.0, 0.0, 0.0, 0.0, 0.0, 1.6776157704101343E9, 0.0, 2023-02-28 12:22:50.410
61.0, 26810.090459595976, -4515.924098005784, 16305.485821424225, -3405.9811718441456, 14942.252927095047, 6849.602681351028, -187500.02235174447, -187500.02235174447, -0.176, -0.776, -0.628, 192.0, 0.0, 0.0, 0.0, 0.0, 0.0, 0.0, 0.0, 0.0, 0.0, 1.6776157704141417E9, 0.0, 2023-02-28 12:22:50.414
62.0, 26757.697970592737, -4512.414874126301, 16245.046704417075, -3405.19886078821, 14904.322016754391, 6861.78438207917, -187500.02235174447, -187500.02235174447, -0.176, -0.776, -0.628, 192.0, 0.0, 0.0, 0.0, 0.0, 0.0, 0.0, 0.0, 0.0, 0.0, 1.6776157704182007E9, 0.0, 2023-02-28 12:22:50.418
63.0, 26872.98826849321, -4516.3040776615235, 16510.183097145928, -3409.065712578978, 15031.816367127463, 6976.404127645985, -187500.02235174447, -187500.02235174447, -0.176, -0.776, -0.628, 192.0, 0.0, 0.0, 0.0, 0.0, 0.0, 0.0, 0.0, 0.0, 0.0, 1.6776157704241517E9, 0.0, 2023-02-28 12:22:50.424
64.0, 26872.496530115193, -4515.99115323915, 16601.646435457045, -3408.708084667693, 15079.582045028454, 6980.42744164794, -187500.02235174447, -187500.02235174447, -0.178, -0.772, -0.63, 192.0, 250.0, 112.0, 231.0, 224.0, 236.0, 80.0, 0.0, 0.0, 0.0, 1.6776157704281445E9, 0.0, 2023-02-28 12:22:50.428
65.0, 26730.182973168252, -4508.2574496576135, 16346.769493433178, -3403.8577561208913, 14943.437569551179, 6860.800905323137, -187500.02235174447, -187500.02235174447, -0.178, -0.772, -0.63, 192.0, 0.0, 0.0, 0.0, 0.0, 0.0, 0.0, 0.0, 0.0, 0.0, 1.6776157704312391E9, 0.0, 2023-02-28 12:22:50.431
66.0, 26720.23644688564, -4502.602458310421, 16223.700788462256, -3404.3047910099976, 14876.18117048516, 6834.358791632509, -187500.02235174447, -187500.02235174447, -0.178, -0.772, -0.63, 192.0, 0.0, 0.0, 0.0, 0.0, 0.0, 0.0, 0.0, 0.0, 0.0, 1.6776157704352436E9, 0.0, 2023-02-28 12:22:50.435
67.0, 26789.16922678581, -4502.066016443493, 16459.511692465745, -3408.3951602453185, 14999.339282433903, 6942.630641774016, -187500.02235174447, -187500.02235174447, -0.178, -0.772, -0.63, 192.0, 0.0, 0.0, 0.0, 0.0, 0.0, 0.0, 0.0, 0.0, 0.0, 1.67761577043822E9, 0.0, 2023-02-28 12:22:50.438
68.0, 26861.633582309914, -4511.006714225616, 16616.823269942197, -3410.6973899242153, 15073.994108914627, 6983.2884649382195, -187500.02235174447, -187500.02235174447, -0.178, -0.772, -0.63, 192.0, 0.0, 0.0, 0.0, 0.0, 0.0, 0.0, 0.0, 0.0, 0.0, 1.6776157704421647E9, 0.0, 2023-02-28 12:22:50.442
69.0, 26862.75116953268, -4517.712237562208, 16398.223209169293, -3408.1716428007658, 14963.375325605313, 6869.495733916251, -187500.02235174447, -187500.02235174447, -0.178, -0.772, -0.63, 192.0, 0.0, 0.0, 0.0, 0.0, 0.0, 0.0, 0.0, 0.0, 0.0, 1.6776157704461591E9, 0.0, 2023-02-28 12:22:50.446
70.0, 26744.62220008638, -4513.644220071343, 16218.291666304072, -3407.5904974449277, 14871.867283805286, 6806.77673897466, -187500.02235174447, -187500.02235174447, -0.178, -0.772, -0.63, 192.0, 0.0, 0.0, 0.0, 0.0, 0.0, 0.0, 0.0, 0.0, 0.0, 1.6776157704501915E9, 0.0, 2023-02-28 12:22:50.450
71.0, 26674.95181261919, -4512.146653192836, 16411.00840699773, -3412.329067269453, 14970.192607664181, 6901.101100576056, -187500.02235174447, -187500.02235174447, -0.178, -0.772, -0.63, 192.0, 0.0, 0.0, 0.0, 0.0, 0.0, 0.0, 0.0, 0.0, 0.0, 1.6776157704551756E9, 0.0, 2023-02-28 12:22:50.455
72.0, 26762.794168328546, -4511.632563070365, 16618.00791239833, -3413.312544025486, 15066.774495455564, 6977.90169452449, -187500.02235174447, -187500.02235174447, -0.178, -0.772, -0.63, 192.0, 0.0, 0.0, 0.0, 0.0, 0.0, 0.0, 0.0, 0.0, 0.0, 1.6776157704582584E9, 0.0, 2023-02-28 12:22:50.458
73.0, 26780.34028772596, -4519.858005029918, 16450.325125494615, -3411.9490876137124, 14977.814552523441, 6882.727966633794, -187500.02235174447, -187500.02235174447, -0.178, -0.772, -0.63, 192.0, 0.0, 0.0, 0.0, 0.0, 0.0, 0.0, 0.0, 0.0, 0.0, 1.6776157704622643E9, 0.0, 2023-02-28 12:22:50.462
74.0, 26640.150146502277, -4518.382789895867, 16221.935000650288, -3409.9374306127347, 14867.687507592143, 6800.048863893612, -187500.02235174447, -187500.02235174447, -0.184, -0.774, -0.628, 192.0, 250.0, 64.0, 231.0, 208.0, 236.0, 96.0, 0.0, 0.0, 0.0, 1.6776157704663713E9, 0.0, 2023-02-28 12:22:50.466
75.0, 26639.45724242416, -4514.851214271929, 16356.38074354896, -3411.993791102623, 14930.942944400662, 6883.130298033989, -187500.02235174447, -187500.02235174447, -0.184, -0.774, -0.628, 192.0, 0.0, 0.0, 0.0, 0.0, 0.0, 0.0, 0.0, 0.0, 0.0, 1.677615770470418E9, 0.0, 2023-02-28 12:22:50.470
76.0, 26657.9421350887, -4512.79485378204, 16603.7698511803, -3414.1172068258775, 15052.514082493077, 6970.816191532158, -187500.02235174447, -187500.02235174447, -0.184, -0.774, -0.628, 192.0, 0.0, 0.0, 0.0, 0.0, 0.0, 0.0, 0.0, 0.0, 0.0, 1.6776157704742737E9, 0.0, 2023-02-28 12:22:50.474
77.0, 26627.767280074037, -4514.851214271929, 16495.78857371671, -3411.479700980151, 15000.166296978749, 6898.88827787498, -187500.02235174447, -187500.02235174447, -0.184, -0.774, -0.628, 192.0, 0.0, 0.0, 0.0, 0.0, 0.0, 0.0, 0.0, 0.0, 0.0, 1.6776157704782536E9, 0.0, 2023-02-28 12:22:50.478
78.0, 26597.950052970657, -4512.906612504317, 16235.50250953466, -3408.551622456506, 14863.03834474544, 6807.20142211931, -187500.02235174447, -187500.02235174447, -0.184, -0.774, -0.628, 192.0, 0.0, 0.0, 0.0, 0.0, 0.0, 0.0, 0.0, 0.0, 0.0, 1.6776157704833534E9, 0.0, 2023-02-28 12:22:50.483
79.0, 26695.560121006984, -4519.947412007739, 16308.235085992228, -3414.318372525975, 14894.151973027227, 6860.4879809007625, -187500.02235174447, -187500.02235174447, -0.184, -0.774, -0.628, 192.0, 0.0, 0.0, 0.0, 0.0, 0.0, 0.0, 0.0, 0.0, 0.0, 1.67761577048627E9, 0.0, 2023-02-28 12:22:50.486
80.0, 26592.116247667822, -4511.498452603633, 16575.293728744236, -3413.4913579811287, 15034.096245061904, 6965.6752903074375, -187500.02235174447, -187500.02235174447, -0.184, -0.774, -0.628, 192.0, 0.0, 0.0, 0.0, 0.0, 0.0, 0.0, 0.0, 0.0, 0.0, 1.6776157704893022E9, 0.0, 2023-02-28 12:22:50.489
81.0, 26542.182450554665, -4503.69769378873, 16532.624248579057, -3409.1998230457098, 15008.592904638399, 6923.363438053541, -187500.02235174447, -187500.02235174447, -0.184, -0.774, -0.628, 192.0, 0.0, 0.0, 0.0, 0.0, 0.0, 0.0, 0.0, 0.0, 0.0, 1.6776157704942436E9, 0.0, 2023-02-28 12:22:50.494
82.0, 26596.519541325517, -4508.4362636132555, 16257.094294678485, -3407.501090467106, 14863.641841845732, 6811.560012288095, -187500.02235174447, -187500.02235174447, -0.184, -0.774, -0.628, 192.0, 0.0, 0.0, 0.0, 0.0, 0.0, 0.0, 0.0, 0.0, 0.0, 1.6776157704982553E9, 0.0, 2023-02-28 12:22:50.498
83.0, 26594.48553258008, -4518.025161984582, 16258.837730746, -3410.317410268475, 14859.79734179942, 6842.628937080973, -187500.02235174447, -187500.02235174447, -0.184, -0.774, -0.628, 192.0, 0.0, 0.0, 0.0, 0.0, 0.0, 0.0, 0.0, 0.0, 0.0, 1.6776157705022879E9, 0.0, 2023-02-28 12:22:50.502
84.0, 26596.094858180866, -4509.665609558298, 16532.4007311345, -3411.1444248133216, 15004.882515058818, 6949.671441277438, -187500.02235174447, -187500.02235174447, -0.186, -0.776, -0.63, 192.0, 250.0, 48.0, 231.0, 192.0, 236.0, 80.0, 0.0, 0.0, 0.0, 1.6776157705063703E9, 0.0, 2023-02-28 12:22:50.506
85.0, 26599.78289601599, -4508.570374079987, 16562.37442044907, -3407.903421867302, 15023.322704234446, 6929.487816034296, -187500.02235174447, -187500.02235174447, -0.186, -0.776, -0.63, 192.0, 0.0, 0.0, 0.0, 0.0, 0.0, 0.0, 0.0, 0.0, 0.0, 1.6776157705112808E9, 0.0, 2023-02-28 12:22:50.511
86.0, 26404.13807679869, -4499.026179197572, 16287.693832837802, -3402.2037270311985, 14883.445487433135, 6812.454082066308, -187500.02235174447, -187500.02235174447, -0.186, -0.776, -0.63, 192.0, 0.0, 0.0, 0.0, 0.0, 0.0, 0.0, 0.0, 0.0, 0.0, 1.6776157705143015E9, 0.0, 2023-02-28 12:22:50.514
87.0, 26375.863120062724, -4500.009655953605, 16221.912648905833, -3403.030741576045, 14850.789588783931, 6813.795186733626, -187500.02235174447, -187500.02235174447, -0.186, -0.776, -0.63, 192.0, 0.0, 0.0, 0.0, 0.0, 0.0, 0.0, 0.0, 0.0, 0.0, 1.67761577051926E9, 0.0, 2023-02-28 12:22:50.519
88.0, 26475.887176500226, -4507.721007790686, 16483.830390433122, -3406.450558477707, 14979.379174635313, 6938.4955690497845, -187500.02235174447, -187500.02235174447, -0.186, -0.776, -0.63, 192.0, 0.0, 0.0, 0.0, 0.0, 0.0, 0.0, 0.0, 0.0, 0.0, 1.6776157705222983E9, 0.0, 2023-02-28 12:22:50.522
89.0, 26425.260475308954, -4497.975647208172, 16581.775734636278, -3403.589535187428, 15026.206079269181, 6959.1038774375775, -187500.02235174447, -187500.02235174447, -0.186, -0.776, -0.63, 192.0, 0.0, 0.0, 0.0, 0.0, 0.0, 0.0, 0.0, 0.0, 0.0, 1.677615770526271E9, 0.0, 2023-02-28 12:22:50.526
90.0, 26298.503732502908, -4483.245847612125, 16328.575173446558, -3398.649799662805, 14894.978987572073, 6838.426809123374, -187500.02235174447, -187500.02235174447, -0.186, -0.776, -0.63, 192.0, 0.0, 0.0, 0.0, 0.0, 0.0, 0.0, 0.0, 0.0, 0.0, 1.6776157705302708E9, 0.0, 2023-02-28 12:22:50.530
91.0, 26284.846816640715, -4489.146708148326, 16200.656139928835, -3401.935506097735, 14820.413568069169, 6799.423015048864, -187500.02235174447, -187500.02235174447, -0.186, -0.776, -0.63, 192.0, 0.0, 0.0, 0.0, 0.0, 0.0, 0.0, 0.0, 0.0, 0.0, 1.6776157705343168E9, 0.0, 2023-02-28 12:22:50.534
92.0, 26312.11594487619, -4498.310923375002, 16430.901459562952, -3406.316448010975, 14933.155767101738, 6916.769673439226, -187500.02235174447, -187500.02235174447, -0.186, -0.776, -0.63, 192.0, 0.0, 0.0, 0.0, 0.0, 0.0, 0.0, 0.0, 0.0, 0.0, 1.6776157705383527E9, 0.0, 2023-02-28 12:22:50.538
93.0, 26272.598060679207, -4502.22247865468, 16592.884551630563, -3407.411683489285, 15013.487936674112, 6955.482894835818, -187500.02235174447, -187500.02235174447, -0.186, -0.776, -0.63, 192.0, 0.0, 0.0, 0.0, 0.0, 0.0, 0.0, 0.0, 0.0, 0.0, 1.6776157705412824E9, 0.0, 2023-02-28 12:22:50.541
94.0, 26166.471978005407, -4508.212746168702, 16377.52549380368, -3403.1425002983215, 14903.316188253903, 6846.9875272497575, -187500.02235174447, -187500.02235174447, -0.182, -0.772, -0.624, 192.0, 250.0, 80.0, 231.0, 224.0, 236.0, 128.0, 0.0, 0.0, 0.0, 1.6776157705453293E9, 0.0, 2023-02-28 12:22:50.545
95.0, 26017.497601210787, -4496.232211140658, 16189.793192123556, -3400.5720496859612, 14802.845096927298, 6785.162602086378, -187500.02235174447, -187500.02235174447, -0.182, -0.772, -0.624, 192.0, 0.0, 0.0, 0.0, 0.0, 0.0, 0.0, 0.0, 0.0, 0.0, 1.677615770550474E9, 0.0, 2023-02-28 12:22:50.550
96.0, 26093.337070147645, -4490.107833159904, 16377.301976359127, -3404.930639854746, 14892.430888704168, 6872.1108880175225, -187500.02235174447, -187500.02235174447, -0.182, -0.772, -0.624, 192.0, 0.0, 0.0, 0.0, 0.0, 0.0, 0.0, 0.0, 0.0, 0.0, 1.67761577055433E9, 0.0, 2023-02-28 12:22:50.554
97.0, 26101.987195251848, -4508.36920837989, 16588.883589373065, -3408.708084667693, 14995.807706809963, 6940.931909195413, -187500.02235174447, -187500.02235174447, -0.182, -0.772, -0.624, 192.0, 0.0, 0.0, 0.0, 0.0, 0.0, 0.0, 0.0, 0.0, 0.0, 1.6776157705583367E9, 0.0, 2023-02-28 12:22:50.558
98.0, 25946.642571287462, -4501.5072228321105, 16422.787776325677, -3404.86358462138, 14910.312284268413, 6849.3344604175645, -187500.02235174447, -187500.02235174447, -0.182, -0.772, -0.624, 192.0, 0.0, 0.0, 0.0, 0.0, 0.0, 0.0, 0.0, 0.0, 0.0, 1.6776157705623305E9, 0.0, 2023-02-28 12:22:50.562
99.0, 25911.952663892826, -4493.415891339289, 16196.006977082132, -3404.1483287988103, 14789.344643276292, 6767.638834433417, -187500.02235174447, -187500.02235174447, -0.182, -0.772, -0.624, 192.0, 0.0, 0.0, 0.0, 0.0, 0.0, 0.0, 0.0, 0.0, 0.0, 1.6776157705663507E9, 0.0, 2023-02-28 12:22:50.566
100.0, 25818.902351725385, -4499.048530942026, 16326.004722834197, -3406.607020688894, 14854.522330107968, 6848.440390639352, -187500.02235174447, -187500.02235174447, -0.182, -0.772, -0.624, 192.0, 0.0, 0.0, 0.0, 0.0, 0.0, 0.0, 0.0, 0.0, 0.0, 1.6776157705693183E9, 0.0, 2023-02-28 12:22:50.569
101.0, 25840.605895591485, -4494.913458217795, 16576.27720550027, -3408.48456722314, 14985.525904360522, 6932.237080602298, -187500.02235174447, -187500.02235174447, -0.182, -0.772, -0.624, 192.0, 0.0, 0.0, 0.0, 0.0, 0.0, 0.0, 0.0, 0.0, 0.0, 1.6776157705743537E9, 0.0, 2023-02-28 12:22:50.574
102.0, 25793.555473513064, -4487.380920336356, 16475.9402246404, -3405.131805554844, 14931.814662434419, 6862.387879179464, -187500.02235174447, -187500.02235174447, -0.182, -0.772, -0.624, 192.0, 0.0, 0.0, 0.0, 0.0, 0.0, 0.0, 0.0, 0.0, 0.0, 1.677615770579389E9, 0.0, 2023-02-28 12:22:50.579
103.0, 25673.012515665596, -4481.278894100058, 16216.168250580818, -3402.7178171536707, 14807.002521395985, 6760.128648296434, -187500.02235174447, -187500.02235174447, -0.182, -0.772, -0.624, 192.0, 0.0, 0.0, 0.0, 0.0, 0.0, 0.0, 0.0, 0.0, 0.0, 1.6776157705833929E9, 0.0, 2023-02-28 12:22:50.583
104.0, 25552.02252292902, -4481.41300456679, 16282.105896723975, -3405.936468355235, 14841.22304215706, 6817.907907713403, -187500.02235174447, -187500.02235174447, -0.182, -0.776, -0.624, 192.0, 250.0, 80.0, 231.0, 192.0, 236.0, 128.0, 0.0, 0.0, 0.0, 1.6776157705883343E9, 0.0, 2023-02-28 12:22:50.588
105.0, 25598.62591011833, -4486.911533702795, 16556.004173279307, -3408.842195134425, 14973.008927465551, 6934.382848070008, -187500.02235174447, -187500.02235174447, -0.182, -0.776, -0.624, 192.0, 0.0, 0.0, 0.0, 0.0, 0.0, 0.0, 0.0, 0.0, 0.0, 1.6776157705913332E9, 0.0, 2023-02-28 12:22:50.591
106.0, 25622.11759354086, -4488.766728492586, 16525.963428731375, -3408.3951602453185, 14952.847653966863, 6887.622998669505, -187500.02235174447, -187500.02235174447, -0.182, -0.776, -0.624, 192.0, 0.0, 0.0, 0.0, 0.0, 0.0, 0.0, 0.0, 0.0, 0.0, 1.677615770594362E9, 0.0, 2023-02-28 12:22:50.594
107.0, 25467.354114932314, -4484.341083090435, 16252.869814976433, -3405.556488699495, 14805.862582428765, 6775.573703715051, -187500.02235174447, -187500.02235174447, -0.182, -0.776, -0.624, 192.0, 0.0, 0.0, 0.0, 0.0, 0.0, 0.0, 0.0, 0.0, 0.0, 1.677615770597352E9, 0.0, 2023-02-28 12:22:50.597
108.0, 25429.378501102747, -4477.881428942851, 16246.097236406475, -3406.897593366813, 14801.54869574889, 6799.49007028223, -187500.02235174447, -187500.02235174447, -0.182, -0.776, -0.624, 192.0, 0.0, 0.0, 0.0, 0.0, 0.0, 0.0, 0.0, 0.0, 0.0, 1.6776157706013713E9, 0.0, 2023-02-28 12:22:50.601
109.0, 25390.59822447279, -4484.676359257264, 16521.56013507368, -3410.831500390947, 14945.136302129782, 6907.2701820457205, -187500.02235174447, -187500.02235174447, -0.182, -0.776, -0.624, 192.0, 0.0, 0.0, 0.0, 0.0, 0.0, 0.0, 0.0, 0.0, 0.0, 1.6776157706064E9, 0.0, 2023-02-28 12:22:50.606
110.0, 25292.027031424885, -4476.450917297711, 16557.50174015781, -3406.159985799788, 14967.041011695983, 6900.542306964673, -187500.02235174447, -187500.02235174447, -0.182, -0.776, -0.624, 192.0, 0.0, 0.0, 0.0, 0.0, 0.0, 0.0, 0.0, 0.0, 0.0, 1.677615770610404E9, 0.0, 2023-02-28 12:22:50.610
111.0, 25209.169114729062, -4468.426641038256, 16285.481010136726, -3401.287305508531, 14825.576821038345, 6784.2014770748, -187500.02235174447, -187500.02235174447, -0.182, -0.776, -0.624, 192.0, 0.0, 0.0, 0.0, 0.0, 0.0, 0.0, 0.0, 0.0, 0.0, 1.6776157706143618E9, 0.0, 2023-02-28 12:22:50.614
112.0, 25244.440167479537, -4461.631710723843, 16211.787308667579, -3400.7508636416037, 14789.076422342829, 6786.302541053598, -187500.02235174447, -187500.02235174447, -0.182, -0.776, -0.624, 192.0, 0.0, 0.0, 0.0, 0.0, 0.0, 0.0, 0.0, 0.0, 0.0, 1.6776157706184096E9, 0.0, 2023-02-28 12:22:50.618
113.0, 25219.0038822894, -4454.076821097949, 16470.17347457093, -3401.019084575067, 14924.885621653275, 6904.073882588611, -187500.02235174447, -187500.02235174447, -0.182, -0.776, -0.624, 192.0, 0.0, 0.0, 0.0, 0.0, 0.0, 0.0, 0.0, 0.0, 0.0, 1.6776157706214285E9, 0.0, 2023-02-28 12:22:50.621
114.0, 25267.261298568406, -4460.402364778801, 16576.590129922646, -3402.6284101758492, 14978.39569787928, 6911.449958258862, -187500.02235174447, -187500.02235174447, -0.182, -0.776, -0.624, 192.0, 0.0, 0.0, 0.0, 0.0, 0.0, 0.0, 0.0, 0.0, 0.0, 1.6776157706254115E9, 0.0, 2023-02-28 12:22:50.625
115.0, 25183.196387671996, -4462.4140217797785, 16324.015417577675, -3397.420453717763, 14855.572862097368, 6801.725244727761, -187500.02235174447, -187500.02235174447, -0.188, -0.77, -0.626, 192.0, 250.0, 32.0, 231.0, 240.0, 236.0, 112.0, 0.0, 0.0, 0.0, 1.6776157706294122E9, 0.0, 2023-02-28 12:22:50.629
116.0, 25064.888604270054, -4453.182751319737, 16184.562883921015, -3392.927753082246, 14788.651739198178, 6778.233561305233, -187500.02235174447, -187500.02235174447, -0.188, -0.77, -0.626, 192.0, 0.0, 0.0, 0.0, 0.0, 0.0, 0.0, 0.0, 0.0, 0.0, 1.6776157706345057E9, 0.0, 2023-02-28 12:22:50.634
117.0, 25024.633112506046, -4448.2653675395695, 16411.00840699773, -3394.6264856608495, 14909.977008101585, 6882.862077100525, -187500.02235174447, -187500.02235174447, -0.188, -0.77, -0.626, 192.0, 0.0, 0.0, 0.0, 0.0, 0.0, 0.0, 0.0, 0.0, 0.0, 1.6776157706384568E9, 0.0, 2023-02-28 12:22:50.638
118.0, 25017.882885680545, -4440.576367446944, 16576.388964222548, -3393.0842152934333, 14993.72899457562, 6941.535406295706, -187500.02235174447, -187500.02235174447, -0.188, -0.77, -0.626, 192.0, 0.0, 0.0, 0.0, 0.0, 0.0, 0.0, 0.0, 0.0, 0.0, 1.677615770642477E9, 0.0, 2023-02-28 12:22:50.642
119.0, 24983.28238526373, -4433.110884798871, 16366.90841518741, -3389.7761571140477, 14888.80990610241, 6828.659096796406, -187500.02235174447, -187500.02235174447, -0.188, -0.77, -0.626, 192.0, 0.0, 0.0, 0.0, 0.0, 0.0, 0.0, 0.0, 0.0, 0.0, 1.6776157706464171E9, 0.0, 2023-02-28 12:22:50.646
120.0, 24988.669155677457, -4442.319803514458, 16177.566787906504, -3392.1454420263103, 14792.339777033303, 6757.893473850903, -187500.02235174447, -187500.02235174447, -0.188, -0.77, -0.626, 192.0, 0.0, 0.0, 0.0, 0.0, 0.0, 0.0, 0.0, 0.0, 0.0, 1.6776157706495128E9, 0.0, 2023-02-28 12:22:50.649
121.0, 24924.49729734627, -4451.059335596483, 16359.711153472801, -3395.4982036946067, 14885.635958389756, 6857.470495399296, -187500.02235174447, -187500.02235174447, -0.188, -0.77, -0.626, 192.0, 0.0, 0.0, 0.0, 0.0, 0.0, 0.0, 0.0, 0.0, 0.0, 1.6776157706534104E9, 0.0, 2023-02-28 12:22:50.653
122.0, 24839.448909693827, -4438.698820912698, 16575.830170611163, -3395.118224038866, 15003.943741791696, 6925.978592154813, -187500.02235174447, -187500.02235174447, -0.188, -0.77, -0.626, 192.0, 0.0, 0.0, 0.0, 0.0, 0.0, 0.0, 0.0, 0.0, 0.0, 1.67761577065744E9, 0.0, 2023-02-28 12:22:50.657
123.0, 24792.353784126495, -4438.520006957056, 16418.33977917907, -3392.190145515221, 14919.990589617562, 6839.92437600188, -187500.02235174447, -187500.02235174447, -0.188, -0.77, -0.626, 192.0, 0.0, 0.0, 0.0, 0.0, 0.0, 0.0, 0.0, 0.0, 0.0, 1.6776157706624317E9, 0.0, 2023-02-28 12:22:50.662
124.0, 24691.770934077613, -4433.736733643619, 16186.328671732983, -3390.7372821256263, 14800.229942826027, 6756.865293605959, -187500.02235174447, -187500.02235174447, -0.188, -0.77, -0.626, 192.0, 0.0, 0.0, 0.0, 0.0, 0.0, 0.0, 0.0, 0.0, 0.0, 1.677615770666505E9, 0.0, 2023-02-28 12:22:50.666
125.0, 24736.653236943872, -4438.54235870151, 16311.766661616168, -3395.5876106724277, 14862.32308892287, 6828.659096796406, -187500.02235174447, -187500.02235174447, -0.194, -0.77, -0.62, 192.0, 249.0, 240.0, 231.0, 240.0, 236.0, 160.0, 0.0, 0.0, 0.0, 1.6776157706704538E9, 0.0, 2023-02-28 12:22:50.670
126.0, 24791.102086437, -4447.863036139373, 16567.336507718148, -3398.5603926849835, 14989.81743929594, 6926.157406110455, -187500.02235174447, -187500.02235174447, -0.194, -0.77, -0.62, 192.0, 0.0, 0.0, 0.0, 0.0, 0.0, 0.0, 0.0, 0.0, 0.0, 1.677615770674475E9, 0.0, 2023-02-28 12:22:50.674
127.0, 24714.61441691094, -4449.02532685105, 16473.25801530576, -3396.392273472819, 14943.214052106627, 6856.352908176531, -187500.02235174447, -187500.02235174447, -0.194, -0.77, -0.62, 192.0, 0.0, 0.0, 0.0, 0.0, 0.0, 0.0, 0.0, 0.0, 0.0, 1.6776157706774423E9, 0.0, 2023-02-28 12:22:50.677
128.0, 24654.287058626065, -4443.504445970589, 16212.63667495688, -3394.7158926386705, 14808.947123163596, 6743.498950421686, -187500.02235174447, -187500.02235174447, -0.194, -0.77, -0.62, 192.0, 0.0, 0.0, 0.0, 0.0, 0.0, 0.0, 0.0, 0.0, 0.0, 1.6776157706814911E9, 0.0, 2023-02-28 12:22:50.681
129.0, 24652.990657447655, -4446.007841349583, 16272.584053586013, -3398.359226984886, 14836.395065354714, 6787.710700954283, -187500.02235174447, -187500.02235174447, -0.194, -0.77, -0.62, 192.0, 0.0, 0.0, 0.0, 0.0, 0.0, 0.0, 0.0, 0.0, 0.0, 1.6776157706855457E9, 0.0, 2023-02-28 12:22:50.685
130.0, 24642.44063406475, -4441.626899436343, 16546.191757463428, -3399.4991659521065, 14979.312119401948, 6895.133184806488, -187500.02235174447, -187500.02235174447, -0.194, -0.77, -0.62, 192.0, 0.0, 0.0, 0.0, 0.0, 0.0, 0.0, 0.0, 0.0, 0.0, 1.677615770689472E9, 0.0, 2023-02-28 12:22:50.689
131.0, 24690.69805034376, -4449.4500099957, 16523.281219396737, -3399.2756485075533, 14963.688250027688, 6856.710536087816, -187500.02235174447, -187500.02235174447, -0.194, -0.77, -0.62, 192.0, 0.0, 0.0, 0.0, 0.0, 0.0, 0.0, 0.0, 0.0, 0.0, 1.6776157706945148E9, 0.0, 2023-02-28 12:22:50.694
132.0, 24601.24636903362, -4447.9747948616505, 16248.108893407452, -3395.6099624168833, 14822.22405937005, 6750.204473758277, -187500.02235174447, -187500.02235174447, -0.194, -0.77, -0.62, 192.0, 0.0, 0.0, 0.0, 0.0, 0.0, 0.0, 0.0, 0.0, 0.0, 1.6776157706984625E9, 0.0, 2023-02-28 12:22:50.698
133.0, 24619.977130887168, -4440.375201746846, 16236.441282801783, -3397.2192880176653, 14812.635160998721, 6779.552314228095, -187500.02235174447, -187500.02235174447, -0.194, -0.77, -0.62, 192.0, 0.0, 0.0, 0.0, 0.0, 0.0, 0.0, 0.0, 0.0, 0.0, 1.6776157707025099E9, 0.0, 2023-02-28 12:22:50.702
134.0, 24619.86537216489, -4439.59289069091, 16513.535858814223, -3400.616753174872, 14953.585261533888, 6892.026292327201, -187500.02235174447, -187500.02235174447, -0.194, -0.77, -0.62, 192.0, 0.0, 0.0, 0.0, 0.0, 0.0, 0.0, 0.0, 0.0, 0.0, 1.6776157707055318E9, 0.0, 2023-02-28 12:22:50.705
135.0, 24554.508871377573, -4435.010783077572, 16557.434684924447, -3398.3368752404303, 14978.306290901459, 6885.119603290511, -187500.02235174447, -187500.02235174447, -0.186, -0.772, -0.628, 192.0, 250.0, 48.0, 231.0, 224.0, 236.0, 96.0, 0.0, 0.0, 0.0, 1.6776157707094843E9, 0.0, 2023-02-28 12:22:50.709
136.0, 24508.956016177657, -4430.383971975323, 16288.342033427005, -3394.2912094940198, 14840.731303779043, 6769.583436201029, -187500.02235174447, -187500.02235174447, -0.186, -0.772, -0.628, 192.0, 0.0, 0.0, 0.0, 0.0, 0.0, 0.0, 0.0, 0.0, 0.0, 1.6776157707135534E9, 0.0, 2023-02-28 12:22:50.713
137.0, 24546.61870558485, -4429.467550452656, 16209.507430733138, -3394.157099027288, 14795.916056146152, 6767.460020477774, -187500.02235174447, -187500.02235174447, -0.186, -0.772, -0.628, 192.0, 0.0, 0.0, 0.0, 0.0, 0.0, 0.0, 0.0, 0.0, 0.0, 1.677615770717544E9, 0.0, 2023-02-28 12:22:50.717
138.0, 24640.943067186246, -4432.216815020659, 16467.960651869853, -3397.711026395682, 14929.19950833315, 6886.3713009800085, -187500.02235174447, -187500.02235174447, -0.186, -0.772, -0.628, 192.0, 0.0, 0.0, 0.0, 0.0, 0.0, 0.0, 0.0, 0.0, 0.0, 1.6776157707225475E9, 0.0, 2023-02-28 12:22:50.722
139.0, 24647.223907378186, -4430.696896397698, 16580.6134439246, -3396.0793490504443, 14991.49382013009, 6907.493699490274, -187500.02235174447, -187500.02235174447, -0.186, -0.772, -0.628, 192.0, 0.0, 0.0, 0.0, 0.0, 0.0, 0.0, 0.0, 0.0, 0.0, 1.6776157707265208E9, 0.0, 2023-02-28 12:22:50.726
140.0, 24594.876121863857, -4422.560861415966, 16333.783129904645, -3390.0890815364223, 14867.32987968086, 6792.873953923458, -187500.02235174447, -187500.02235174447, -0.186, -0.772, -0.628, 192.0, 0.0, 0.0, 0.0, 0.0, 0.0, 0.0, 0.0, 0.0, 0.0, 1.6776157707305355E9, 0.0, 2023-02-28 12:22:50.730
141.0, 24600.86638937788, -4421.2644602375585, 16192.67656715829, -3390.1784885142433, 14793.5914747228, 6755.837113361015, -187500.02235174447, -187500.02235174447, -0.186, -0.772, -0.628, 192.0, 0.0, 0.0, 0.0, 0.0, 0.0, 0.0, 0.0, 0.0, 0.0, 1.6776157707335474E9, 0.0, 2023-02-28 12:22:50.733
142.0, 24637.07621539548, -4420.146873014793, 16416.86456404502, -3392.6818838932377, 14910.80402264643, 6865.338309447564, -187500.02235174447, -187500.02235174447, -0.186, -0.772, -0.628, 192.0, 0.0, 0.0, 0.0, 0.0, 0.0, 0.0, 0.0, 0.0, 0.0, 1.6776157707375057E9, 0.0, 2023-02-28 12:22:50.737
143.0, 24658.802111006036, -4418.694009625198, 16590.67172892949, -3391.3631309703746, 15001.529753390521, 6920.837690930091, -187500.02235174447, -187500.02235174447, -0.186, -0.772, -0.628, 192.0, 0.0, 0.0, 0.0, 0.0, 0.0, 0.0, 0.0, 0.0, 0.0, 1.6776157707415004E9, 0.0, 2023-02-28 12:22:50.741
144.0, 24607.43780224774, -4418.738713114109, 16386.197970652338, -3388.278590235542, 14897.012996317506, 6815.069236167578, -187500.02235174447, -187500.02235174447, -0.186, -0.772, -0.628, 192.0, 0.0, 0.0, 0.0, 0.0, 0.0, 0.0, 0.0, 0.0, 0.0, 1.6776157707455735E9, 0.0, 2023-02-28 12:22:50.745
