%OpenBCI Raw EEG Data
%Number of channels = 8
%Sample Rate = 250 Hz
%Board = OpenBCI_GUI$BoardCytonSerial
Sample Index, EXG Channel 0, EXG Channel 1, EXG Channel 2, EXG Channel 3, EXG Channel 4, EXG Channel 5, EXG Channel 6, EXG Channel 7, Accel Channel 0, Accel Channel 1, Accel Channel 2, Other, Other, Other, Other, Other, Other, Other, Analog Channel 0, Analog Channel 1, Analog Channel 2, Timestamp, Other, Timestamp (Formatted)
173.0, 26952.38166479846, -4386.239276676092, 16497.442602806404, -3377.52740115254, 15223.10259617598, 7031.903509128512, -187500.02235174447, -187500.02235174447, 0.0, 0.0, 0.0, 192.0, 0.0, 0.0, 0.0, 0.0, 0.0, 0.0, 0.0, 0.0, 0.0, 1.6776158144361331E9, 0.0, 2023-02-28 12:23:34.436
174.0, 26947.531336251657, -4385.1663929422375, 16434.142462508975, -3377.3709389413525, 15189.172648092825, 7027.455511981906, -187500.02235174447, -187500.02235174447, 0.0, 0.0, 0.0, 192.0, 0.0, 0.0, 0.0, 0.0, 0.0, 0.0, 0.0, 0.0, 0.0, 1.6776158144361603E9, 0.0, 2023-02-28 12:23:34.436
175.0, 26977.23680463276, -4383.9370469971955, 16590.649377185033, -3378.488526164118, 15271.248253732712, 7110.916925778023, -187500.02235174447, -187500.02235174447, 0.0, 0.0, 0.0, 192.0, 0.0, 0.0, 0.0, 0.0, 0.0, 0.0, 0.0, 0.0, 0.0, 1.6776158144361763E9, 0.0, 2023-02-28 12:23:34.436
176.0, 26986.848054748545, -4383.490012108089, 16673.30612818076, -3378.3097122084755, 15320.355036301022, 7125.467911418428, -187500.02235174447, -187500.02235174447, 0.0, 0.0, 0.0, 192.0, 0.0, 0.0, 0.0, 0.0, 0.0, 0.0, 0.0, 0.0, 0.0, 1.6776158144361916E9, 0.0, 2023-02-28 12:23:34.436
0.0, 0.0, 0.0, 0.0, 0.0, 0.0, 0.0, 0.0, 0.0, 0.0, 0.0, 0.0, 192.0, 0.0, 0.0, 0.0, 0.0, 0.0, 0.0, 0.0, 0.0, 0.0, 1.6776158145260508E9, 0.0, 2023-02-28 12:23:34.526
1.0, 27095.83516071262, -4398.353922170869, 16609.268380316305, -3404.8188811324694, 15218.542840307098, 7276.342186491751, -187500.02235174447, -187500.02235174447, -0.194, -0.76, -0.614, 192.0, 249.0, 240.0, 232.0, 64.0, 236.0, 208.0, 0.0, 0.0, 0.0, 1.6776158145420988E9, 0.0, 2023-02-28 12:23:34.542
2.0, 27062.575764963123, -4395.3811401583125, 16375.7150025028, -3400.4602909636847, 15103.587818573455, 7155.307490266263, -187500.02235174447, -187500.02235174447, -0.194, -0.76, -0.614, 192.0, 0.0, 0.0, 0.0, 0.0, 0.0, 0.0, 0.0, 0.0, 0.0, 1.6776158145451324E9, 0.0, 2023-02-28 12:23:34.545
3.0, 27035.39604370547, -4391.246067434081, 16134.360865874394, -3398.381578729341, 14981.748459547576, 7080.697367274448, -187500.02235174447, -187500.02235174447, -0.194, -0.76, -0.614, 192.0, 0.0, 0.0, 0.0, 0.0, 0.0, 0.0, 0.0, 0.0, 0.0, 1.6776158145491068E9, 0.0, 2023-02-28 12:23:34.549
4.0, 27053.97034334783, -4397.616314603843, 16333.581964204546, -3402.896631109313, 15077.771553727574, 7191.114984883665, -187500.02235174447, -187500.02235174447, -0.194, -0.76, -0.614, 192.0, 0.0, 0.0, 0.0, 0.0, 0.0, 0.0, 0.0, 0.0, 0.0, 1.6776158145531037E9, 0.0, 2023-02-28 12:23:34.553
5.0, 27076.389143036504, -4406.557012385966, 16608.195496582448, -3407.210517789187, 15211.367930336944, 7280.700776660536, -187500.02235174447, -187500.02235174447, -0.194, -0.76, -0.614, 192.0, 0.0, 0.0, 0.0, 0.0, 0.0, 0.0, 0.0, 0.0, 0.0, 1.6776158145571003E9, 0.0, 2023-02-28 12:23:34.557
6.0, 27044.44850020987, -4413.508404911567, 16445.005410314254, -3406.4282067332515, 15127.995923518649, 7173.188885830508, -187500.02235174447, -187500.02235174447, -0.194, -0.76, -0.614, 192.0, 0.0, 0.0, 0.0, 0.0, 0.0, 0.0, 0.0, 0.0, 0.0, 1.6776158145611267E9, 0.0, 2023-02-28 12:23:34.561
7.0, 27012.619616105512, -4418.537547414011, 16159.238357453152, -3405.645895677316, 14981.212017680647, 7071.153172392032, -187500.02235174447, -187500.02235174447, -0.194, -0.76, -0.614, 192.0, 0.0, 0.0, 0.0, 0.0, 0.0, 0.0, 0.0, 0.0, 0.0, 1.6776158145651188E9, 0.0, 2023-02-28 12:23:34.565
8.0, 27004.550636357148, -4420.549204414989, 16283.178780457829, -3407.814014889481, 15042.679314932742, 7162.884731636612, -187500.02235174447, -187500.02235174447, -0.202, -0.772, -0.61, 192.0, 249.0, 176.0, 231.0, 224.0, 236.0, 240.0, 0.0, 0.0, 0.0, 1.6776158145701208E9, 0.0, 2023-02-28 12:23:34.570
9.0, 27033.451441937857, -4423.052599793983, 16591.25287428533, -3410.9879626021343, 15201.756680221162, 7277.705642903525, -187500.02235174447, -187500.02235174447, -0.202, -0.772, -0.61, 192.0, 0.0, 0.0, 0.0, 0.0, 0.0, 0.0, 0.0, 0.0, 0.0, 1.6776158145731199E9, 0.0, 2023-02-28 12:23:34.573
10.0, 27003.790677045665, -4425.332477728424, 16505.444527321404, -3409.132767812344, 15159.936566345283, 7203.609610034181, -187500.02235174447, -187500.02235174447, -0.202, -0.772, -0.61, 192.0, 0.0, 0.0, 0.0, 0.0, 0.0, 0.0, 0.0, 0.0, 0.0, 1.677615814576133E9, 0.0, 2023-02-28 12:23:34.576
11.0, 26945.877307161965, -4432.105056298382, 16190.150820034842, -3407.9481253562126, 14994.667767842742, 7078.7304137623805, -187500.02235174447, -187500.02235174447, -0.202, -0.772, -0.61, 192.0, 0.0, 0.0, 0.0, 0.0, 0.0, 0.0, 0.0, 0.0, 0.0, 1.6776158145811577E9, 0.0, 2023-02-28 12:23:34.581
12.0, 26972.989973186253, -4436.64246042281, 16237.335352579994, -3411.2561835355978, 15013.242067485104, 7133.223966744419, -187500.02235174447, -187500.02235174447, -0.202, -0.772, -0.61, 192.0, 0.0, 0.0, 0.0, 0.0, 0.0, 0.0, 0.0, 0.0, 0.0, 1.6776158145851912E9, 0.0, 2023-02-28 12:23:34.585
13.0, 27013.267816694715, -4435.770742389052, 16561.815626837688, -3413.2678405365755, 15177.415630509333, 7268.764945121401, -187500.02235174447, -187500.02235174447, -0.202, -0.772, -0.61, 192.0, 0.0, 0.0, 0.0, 0.0, 0.0, 0.0, 0.0, 0.0, 0.0, 1.67761581458921E9, 0.0, 2023-02-28 12:23:34.589
14.0, 26968.966659184298, -4435.860149366874, 16556.65237386851, -3410.429168990752, 15175.225159552714, 7233.203319693008, -187500.02235174447, -187500.02235174447, -0.202, -0.772, -0.61, 192.0, 0.0, 0.0, 0.0, 0.0, 0.0, 0.0, 0.0, 0.0, 0.0, 1.677615814593199E9, 0.0, 2023-02-28 12:23:34.593
15.0, 26963.49048179275, -4439.97287034665, 16232.440320544281, -3408.2834015230424, 15004.793108080998, 7096.142422693065, -187500.02235174447, -187500.02235174447, -0.202, -0.772, -0.61, 192.0, 0.0, 0.0, 0.0, 0.0, 0.0, 0.0, 0.0, 0.0, 0.0, 1.677615814596224E9, 0.0, 2023-02-28 12:23:34.596
16.0, 26991.273700150694, -4447.460704739178, 16198.152744549841, -3412.2396602916315, 14982.10608745886, 7114.426149657506, -187500.02235174447, -187500.02235174447, -0.202, -0.772, -0.61, 192.0, 0.0, 0.0, 0.0, 0.0, 0.0, 0.0, 0.0, 0.0, 0.0, 1.6776158146001856E9, 0.0, 2023-02-28 12:23:34.600
17.0, 27047.55539268916, -4453.093344341915, 16519.615533306067, -3416.7770644160587, 15144.267993482114, 7253.118724002687, -187500.02235174447, -187500.02235174447, -0.202, -0.772, -0.61, 192.0, 0.0, 0.0, 0.0, 0.0, 0.0, 0.0, 0.0, 0.0, 0.0, 1.6776158146042066E9, 0.0, 2023-02-28 12:23:34.604
18.0, 26999.096810710053, -4453.875655397851, 16597.086679588163, -3415.1677388152766, 15188.211523081247, 7253.074020513776, -187500.02235174447, -187500.02235174447, -0.212, -0.78, -0.604, 192.0, 249.0, 96.0, 231.0, 160.0, 237.0, 32.0, 0.0, 0.0, 0.0, 1.6776158146091995E9, 0.0, 2023-02-28 12:23:34.609
19.0, 26912.32733873455, -4450.254672796092, 16284.721050825245, -3409.6915614237264, 15026.11667229136, 7117.913021792534, -187500.02235174447, -187500.02235174447, -0.212, -0.78, -0.604, 192.0, 0.0, 0.0, 0.0, 0.0, 0.0, 0.0, 0.0, 0.0, 0.0, 1.6776158146132443E9, 0.0, 2023-02-28 12:23:34.613
20.0, 26870.708390558768, -4445.314937271469, 16168.559034891015, -3409.8480236349137, 14966.437514595691, 7102.5573733517385, -187500.02235174447, -187500.02235174447, -0.212, -0.78, -0.604, 192.0, 0.0, 0.0, 0.0, 0.0, 0.0, 0.0, 0.0, 0.0, 0.0, 1.677615814617169E9, 0.0, 2023-02-28 12:23:34.617
21.0, 26879.157349962876, -4443.616204692866, 16463.60206170107, -3414.4971864816175, 15115.098966967937, 7237.696020328524, -187500.02235174447, -187500.02235174447, -0.212, -0.78, -0.604, 192.0, 0.0, 0.0, 0.0, 0.0, 0.0, 0.0, 0.0, 0.0, 0.0, 1.677615814621208E9, 0.0, 2023-02-28 12:23:34.621
22.0, 26915.38952772493, -4445.694916927208, 16618.499650776346, -3414.988924859634, 15192.614816738942, 7271.313043989307, -187500.02235174447, -187500.02235174447, -0.212, -0.78, -0.604, 192.0, 0.0, 0.0, 0.0, 0.0, 0.0, 0.0, 0.0, 0.0, 0.0, 1.6776158146241963E9, 0.0, 2023-02-28 12:23:34.624
23.0, 26875.759884805666, -4445.4490477382005, 16340.712170685789, -3410.2503550351094, 15050.12244583636, 7139.884786592101, -187500.02235174447, -187500.02235174447, -0.212, -0.78, -0.604, 192.0, 0.0, 0.0, 0.0, 0.0, 0.0, 0.0, 0.0, 0.0, 0.0, 1.677615814628336E9, 0.0, 2023-02-28 12:23:34.628
24.0, 26839.192430876785, -4443.660908181776, 16152.354020160918, -3409.8480236349137, 14949.941927187674, 7090.330969134685, -187500.02235174447, -187500.02235174447, -0.212, -0.78, -0.604, 192.0, 0.0, 0.0, 0.0, 0.0, 0.0, 0.0, 0.0, 0.0, 0.0, 1.6776158146322713E9, 0.0, 2023-02-28 12:23:34.632
25.0, 26915.36717598047, -4446.857207638885, 16399.944293492354, -3414.363076014886, 15069.948443168218, 7218.652334052603, -187500.02235174447, -187500.02235174447, -0.212, -0.78, -0.604, 192.0, 0.0, 0.0, 0.0, 0.0, 0.0, 0.0, 0.0, 0.0, 0.0, 1.6776158146372426E9, 0.0, 2023-02-28 12:23:34.637
26.0, 26945.474975761772, -4445.560806460477, 16623.90877293453, -3414.608945203894, 15182.020089867126, 7285.908733118622, -187500.02235174447, -187500.02235174447, -0.212, -0.78, -0.604, 192.0, 0.0, 0.0, 0.0, 0.0, 0.0, 0.0, 0.0, 0.0, 0.0, 1.6776158146412337E9, 0.0, 2023-02-28 12:23:34.641
27.0, 26893.484818158726, -4442.945652359206, 16401.44186037086, -3410.6303346908494, 15068.74144896763, 7165.32107178224, -187500.02235174447, -187500.02235174447, -0.212, -0.78, -0.604, 192.0, 0.0, 0.0, 0.0, 0.0, 0.0, 0.0, 0.0, 0.0, 0.0, 1.6776158146452527E9, 0.0, 2023-02-28 12:23:34.645
28.0, 26867.8920707574, -4444.35381225989, 16156.533796374059, -3410.2503550351094, 14936.754397959043, 7086.5982278106485, -187500.02235174447, -187500.02235174447, -0.216, -0.782, -0.602, 192.0, 249.0, 64.0, 231.0, 144.0, 237.0, 48.0, 0.0, 0.0, 0.0, 1.677615814649227E9, 0.0, 2023-02-28 12:23:34.649
29.0, 26895.585882137526, -4444.242053537614, 16342.209737564295, -3413.8266341479584, 15029.424730470746, 7194.199525618497, -187500.02235174447, -187500.02235174447, -0.216, -0.782, -0.602, 192.0, 0.0, 0.0, 0.0, 0.0, 0.0, 0.0, 0.0, 0.0, 0.0, 1.6776158146523006E9, 0.0, 2023-02-28 12:23:34.652
30.0, 26932.935647122344, -4446.0972483274045, 16616.823269942197, -3415.5253667265615, 15169.704278672252, 7288.903866875633, -187500.02235174447, -187500.02235174447, -0.216, -0.782, -0.602, 192.0, 0.0, 0.0, 0.0, 0.0, 0.0, 0.0, 0.0, 0.0, 0.0, 1.67761581465727E9, 0.0, 2023-02-28 12:23:34.657
31.0, 26932.957998866797, -4446.968966361162, 16461.366887255535, -3412.9102126252906, 15087.762783499096, 7190.913819183567, -187500.02235174447, -187500.02235174447, -0.216, -0.782, -0.602, 192.0, 0.0, 0.0, 0.0, 0.0, 0.0, 0.0, 0.0, 0.0, 0.0, 1.6776158146612253E9, 0.0, 2023-02-28 12:23:34.661
32.0, 26903.02901304114, -4448.600643706399, 16171.017726781098, -3411.345590513419, 14936.374418303301, 7084.921846976501, -187500.02235174447, -187500.02235174447, -0.216, -0.782, -0.602, 192.0, 0.0, 0.0, 0.0, 0.0, 0.0, 0.0, 0.0, 0.0, 0.0, 1.677615814665274E9, 0.0, 2023-02-28 12:23:34.665
33.0, 26871.714219059257, -4443.996184348605, 16284.98927175871, -3414.0725033369667, 14993.796049808985, 7164.047022348288, -187500.02235174447, -187500.02235174447, -0.216, -0.782, -0.602, 192.0, 0.0, 0.0, 0.0, 0.0, 0.0, 0.0, 0.0, 0.0, 0.0, 1.6776158146692977E9, 0.0, 2023-02-28 12:23:34.669
34.0, 26922.81030688409, -4440.509312213578, 16594.829153398176, -3415.0112766040897, 15154.058057553537, 7285.461698229516, -187500.02235174447, -187500.02235174447, -0.216, -0.782, -0.602, 192.0, 0.0, 0.0, 0.0, 0.0, 0.0, 0.0, 0.0, 0.0, 0.0, 1.6776158146722653E9, 0.0, 2023-02-28 12:23:34.672
35.0, 26921.692719661325, -4441.246919780603, 16517.134489671527, -3411.971439358168, 15116.887106524362, 7216.663028796081, -187500.02235174447, -187500.02235174447, -0.216, -0.782, -0.602, 192.0, 0.0, 0.0, 0.0, 0.0, 0.0, 0.0, 0.0, 0.0, 0.0, 1.677615814676238E9, 0.0, 2023-02-28 12:23:34.676
36.0, 26908.57224566606, -4444.622033193354, 16199.806773639533, -3410.9432591132236, 14953.495854556068, 7083.245466142353, -187500.02235174447, -187500.02235174447, -0.216, -0.782, -0.602, 192.0, 0.0, 0.0, 0.0, 0.0, 0.0, 0.0, 0.0, 0.0, 0.0, 1.6776158146813166E9, 0.0, 2023-02-28 12:23:34.681
37.0, 26915.255417258195, -4443.3926872483125, 16232.686189733291, -3413.424302747763, 14967.86802624083, 7134.274498733819, -187500.02235174447, -187500.02235174447, -0.216, -0.782, -0.602, 192.0, 0.0, 0.0, 0.0, 0.0, 0.0, 0.0, 0.0, 0.0, 0.0, 1.6776158146853244E9, 0.0, 2023-02-28 12:23:34.685
38.0, 26947.598391485026, -4436.977736589639, 16554.573661634167, -3414.050151592511, 15136.020199778104, 7275.135192291164, -187500.02235174447, -187500.02235174447, -0.216, -0.786, -0.602, 192.0, 249.0, 64.0, 231.0, 112.0, 237.0, 48.0, 0.0, 0.0, 0.0, 1.6776158146893015E9, 0.0, 2023-02-28 12:23:34.689
39.0, 26949.47593801927, -4436.620108678354, 16559.08871401414, -3410.8762038798577, 15141.988115547672, 7243.7309913314575, -187500.02235174447, -187500.02235174447, -0.216, -0.786, -0.602, 192.0, 0.0, 0.0, 0.0, 0.0, 0.0, 0.0, 0.0, 0.0, 0.0, 1.677615814692308E9, 0.0, 2023-02-28 12:23:34.692
40.0, 26893.685983858824, -4438.8776348683405, 16236.061303146042, -3408.6633811787824, 14975.422915866724, 7100.6798268174925, -187500.02235174447, -187500.02235174447, -0.216, -0.786, -0.602, 192.0, 0.0, 0.0, 0.0, 0.0, 0.0, 0.0, 0.0, 0.0, 0.0, 1.6776158146962872E9, 0.0, 2023-02-28 12:23:34.696
41.0, 26891.76373383567, -4442.096286069905, 16189.614378167915, -3411.345590513419, 14946.589165519377, 7113.375617668107, -187500.02235174447, -187500.02235174447, -0.216, -0.786, -0.602, 192.0, 0.0, 0.0, 0.0, 0.0, 0.0, 0.0, 0.0, 0.0, 0.0, 1.6776158147003388E9, 0.0, 2023-02-28 12:23:34.700
42.0, 26936.15429832391, -4441.090457569416, 16506.629169777534, -3414.4748347371624, 15104.951274985227, 7255.24213972594, -187500.02235174447, -187500.02235174447, -0.216, -0.786, -0.602, 192.0, 0.0, 0.0, 0.0, 0.0, 0.0, 0.0, 0.0, 0.0, 0.0, 1.67761581470432E9, 0.0, 2023-02-28 12:23:34.704
43.0, 26973.235842375263, -4435.614280177865, 16594.85150514263, -3411.5914597024275, 15149.922984829305, 7259.712488617002, -187500.02235174447, -187500.02235174447, -0.216, -0.786, -0.602, 192.0, 0.0, 0.0, 0.0, 0.0, 0.0, 0.0, 0.0, 0.0, 0.0, 1.6776158147082665E9, 0.0, 2023-02-28 12:23:34.708
44.0, 26944.022112372175, -4437.40241973429, 16288.207922960273, -3408.5292707120507, 14990.219770696136, 7119.343533437674, -187500.02235174447, -187500.02235174447, -0.216, -0.786, -0.602, 192.0, 0.0, 0.0, 0.0, 0.0, 0.0, 0.0, 0.0, 0.0, 0.0, 1.6776158147133164E9, 0.0, 2023-02-28 12:23:34.713
45.0, 26914.74132713572, -4438.989393590617, 16161.875863298877, -3409.6021544459054, 14923.991551875062, 7097.774100038302, -187500.02235174447, -187500.02235174447, -0.216, -0.786, -0.602, 192.0, 0.0, 0.0, 0.0, 0.0, 0.0, 0.0, 0.0, 0.0, 0.0, 1.67761581471726E9, 0.0, 2023-02-28 12:23:34.717
46.0, 26942.52454549367, -4435.390762733312, 16451.30860225065, -3412.932564369746, 15069.836684445942, 7236.109046472197, -187500.02235174447, -187500.02235174447, -0.216, -0.786, -0.602, 192.0, 0.0, 0.0, 0.0, 0.0, 0.0, 0.0, 0.0, 0.0, 0.0, 1.6776158147204323E9, 0.0, 2023-02-28 12:23:34.720
47.0, 26981.505987823726, -4430.16045453077, 16615.348054808146, -3411.5020527246065, 15156.4273424658, 7278.15267779263, -187500.02235174447, -187500.02235174447, -0.216, -0.786, -0.602, 192.0, 0.0, 0.0, 0.0, 0.0, 0.0, 0.0, 0.0, 0.0, 0.0, 1.6776158147243192E9, 0.0, 2023-02-28 12:23:34.724
48.0, 26923.011472584185, -4427.008858562572, 16343.595545720524, -3407.2328695336428, 15020.752253622086, 7144.60100467217, -187500.02235174447, -187500.02235174447, -0.218, -0.78, -0.608, 192.0, 249.0, 48.0, 231.0, 160.0, 237.0, 0.0, 0.0, 0.0, 0.0, 1.677615814728356E9, 0.0, 2023-02-28 12:23:34.728
49.0, 26891.964899535764, -4425.868919595351, 16149.537700359548, -3407.165814300277, 14921.108176840327, 7086.575876066194, -187500.02235174447, -187500.02235174447, -0.218, -0.78, -0.608, 192.0, 0.0, 0.0, 0.0, 0.0, 0.0, 0.0, 0.0, 0.0, 0.0, 1.6776158147323492E9, 0.0, 2023-02-28 12:23:34.732
50.0, 26924.106708062496, -4422.337343971413, 16391.093002688052, -3409.57980270145, 15042.165224810271, 7210.7398165154245, -187500.02235174447, -187500.02235174447, -0.218, -0.78, -0.608, 192.0, 0.0, 0.0, 0.0, 0.0, 0.0, 0.0, 0.0, 0.0, 0.0, 1.6776158147373707E9, 0.0, 2023-02-28 12:23:34.737
51.0, 26980.701325023336, -4419.498672425589, 16621.71830197791, -3408.6186776898717, 15159.824807623007, 7284.5899801957585, -187500.02235174447, -187500.02235174447, -0.218, -0.78, -0.608, 192.0, 0.0, 0.0, 0.0, 0.0, 0.0, 0.0, 0.0, 0.0, 0.0, 1.677615814741292E9, 0.0, 2023-02-28 12:23:34.741
52.0, 26917.937626592833, -4417.866995080351, 16405.688691817366, -3404.774177643559, 15050.234204558636, 7168.56207472826, -187500.02235174447, -187500.02235174447, -0.218, -0.78, -0.608, 192.0, 0.0, 0.0, 0.0, 0.0, 0.0, 0.0, 0.0, 0.0, 0.0, 1.6776158147453117E9, 0.0, 2023-02-28 12:23:34.745
53.0, 26886.55577737758, -4420.638611392809, 16154.186863206252, -3405.355322999397, 14918.29185703896, 7083.267817886808, -187500.02235174447, -187500.02235174447, -0.218, -0.78, -0.608, 192.0, 0.0, 0.0, 0.0, 0.0, 0.0, 0.0, 0.0, 0.0, 0.0, 1.677615814748362E9, 0.0, 2023-02-28 12:23:34.748
54.0, 26945.027940872664, -4421.420922448745, 16333.827833393556, -3409.378637001352, 15007.475317415634, 7189.975045916444, -187500.02235174447, -187500.02235174447, -0.218, -0.78, -0.608, 192.0, 0.0, 0.0, 0.0, 0.0, 0.0, 0.0, 0.0, 0.0, 0.0, 1.6776158147523901E9, 0.0, 2023-02-28 12:23:34.752
55.0, 26973.437008075358, -4419.990410803605, 16616.599752497645, -3410.67503817976, 15150.325316229502, 7295.3858727676725, -187500.02235174447, -187500.02235174447, -0.218, -0.78, -0.608, 192.0, 0.0, 0.0, 0.0, 0.0, 0.0, 0.0, 0.0, 0.0, 0.0, 1.6776158147564237E9, 0.0, 2023-02-28 12:23:34.756
56.0, 26940.84816465952, -4417.531718913522, 16471.40282051597, -3406.539965455528, 15077.995071172129, 7200.055682665788, -187500.02235174447, -187500.02235174447, -0.218, -0.78, -0.608, 192.0, 0.0, 0.0, 0.0, 0.0, 0.0, 0.0, 0.0, 0.0, 0.0, 1.677615814760445E9, 0.0, 2023-02-28 12:23:34.760
57.0, 26897.84340832751, -4416.212965990659, 16174.415191938306, -3404.4612532211845, 14928.081921110383, 7086.754690021836, -187500.02235174447, -187500.02235174447, -0.218, -0.78, -0.608, 192.0, 0.0, 0.0, 0.0, 0.0, 0.0, 0.0, 0.0, 0.0, 0.0, 1.6776158147644477E9, 0.0, 2023-02-28 12:23:34.764
58.0, 26935.506097734702, -4415.967096801651, 16257.429570845316, -3406.5623171999837, 14970.997270464573, 7155.754525155369, -187500.02235174447, -187500.02235174447, -0.214, -0.782, -0.61, 192.0, 249.0, 80.0, 231.0, 144.0, 236.0, 240.0, 0.0, 0.0, 0.0, 1.6776158147695265E9, 0.0, 2023-02-28 12:23:34.769
59.0, 26972.878214463977, -4413.642515378298, 16492.189942859404, -3406.7187794111705, 15092.970739957183, 7247.307270444307, -187500.02235174447, -187500.02235174447, -0.214, -0.782, -0.61, 192.0, 0.0, 0.0, 0.0, 0.0, 0.0, 0.0, 0.0, 0.0, 0.0, 1.6776158147733605E9, 0.0, 2023-02-28 12:23:34.773
60.0, 26938.94826638082, -4411.697913610687, 16446.391218470482, -3403.7683491430703, 15070.976623413162, 7209.130490914642, -187500.02235174447, -187500.02235174447, -0.214, -0.782, -0.61, 192.0, 0.0, 0.0, 0.0, 0.0, 0.0, 0.0, 0.0, 0.0, 0.0, 1.6776158147763908E9, 0.0, 2023-02-28 12:23:34.776
61.0, 26907.544065421112, -4409.596849631888, 16275.623890831936, -3402.8072241314917, 14983.022508981529, 7140.443580203483, -187500.02235174447, -187500.02235174447, -0.214, -0.782, -0.61, 192.0, 0.0, 0.0, 0.0, 0.0, 0.0, 0.0, 0.0, 0.0, 0.0, 1.6776158147803895E9, 0.0, 2023-02-28 12:23:34.780
62.0, 26927.52652496416, -4411.653210121776, 16311.721958127257, -3404.997695088112, 15000.501573145579, 7172.026595118832, -187500.02235174447, -187500.02235174447, -0.214, -0.782, -0.61, 192.0, 0.0, 0.0, 0.0, 0.0, 0.0, 0.0, 0.0, 0.0, 0.0, 1.6776158147843742E9, 0.0, 2023-02-28 12:23:34.784
63.0, 26961.23295560276, -4414.894213067796, 16488.83718119111, -3406.7858346445364, 15094.535362069055, 7241.942851775033, -187500.02235174447, -187500.02235174447, -0.214, -0.782, -0.61, 192.0, 0.0, 0.0, 0.0, 0.0, 0.0, 0.0, 0.0, 0.0, 0.0, 1.6776158147884595E9, 0.0, 2023-02-28 12:23:34.788
64.0, 26968.63138301747, -4414.715399112153, 16474.196788572885, -3404.7965293880143, 15090.042661433537, 7215.56779331777, -187500.02235174447, -187500.02235174447, -0.214, -0.782, -0.61, 192.0, 0.0, 0.0, 0.0, 0.0, 0.0, 0.0, 0.0, 0.0, 0.0, 1.6776158147924025E9, 0.0, 2023-02-28 12:23:34.792
65.0, 26934.164993067385, -4412.726093855631, 16296.433364919827, -3402.1143200533775, 15000.68038710122, 7141.337649981696, -187500.02235174447, -187500.02235174447, -0.214, -0.782, -0.61, 192.0, 0.0, 0.0, 0.0, 0.0, 0.0, 0.0, 0.0, 0.0, 0.0, 1.6776158147973888E9, 0.0, 2023-02-28 12:23:34.797
66.0, 26932.913295377886, -4410.133291498815, 16287.13503922642, -3402.583706686939, 14996.63472135481, 7156.22391178893, -187500.02235174447, -187500.02235174447, -0.214, -0.782, -0.61, 192.0, 0.0, 0.0, 0.0, 0.0, 0.0, 0.0, 0.0, 0.0, 0.0, 1.677615814801379E9, 0.0, 2023-02-28 12:23:34.801
67.0, 26950.19119384184, -4411.4073409327675, 16461.098666322072, -3405.154157299299, 15087.494562565633, 7226.542499845326, -187500.02235174447, -187500.02235174447, -0.214, -0.782, -0.61, 192.0, 0.0, 0.0, 0.0, 0.0, 0.0, 0.0, 0.0, 0.0, 0.0, 1.6776158148043628E9, 0.0, 2023-02-28 12:23:34.804
68.0, 26952.672237476378, -4412.524928155533, 16494.425117304938, -3405.24356427712, 15104.101908695926, 7222.988572476933, -187500.02235174447, -187500.02235174447, -0.212, -0.778, -0.606, 192.0, 249.0, 96.0, 231.0, 176.0, 237.0, 16.0, 0.0, 0.0, 0.0, 1.677615814808396E9, 0.0, 2023-02-28 12:23:34.808
69.0, 26924.7549086517, -4414.178957245226, 16323.858955366488, -3404.930639854746, 15014.247895985593, 7147.864359362646, -187500.02235174447, -187500.02235174447, -0.212, -0.778, -0.606, 192.0, 0.0, 0.0, 0.0, 0.0, 0.0, 0.0, 0.0, 0.0, 0.0, 1.6776158148124352E9, 0.0, 2023-02-28 12:23:34.812
70.0, 26920.865705116477, -4417.01762879105, 16271.399411129882, -3406.5623171999837, 14984.743593304587, 7142.857568604657, -187500.02235174447, -187500.02235174447, -0.212, -0.778, -0.606, 192.0, 0.0, 0.0, 0.0, 0.0, 0.0, 0.0, 0.0, 0.0, 0.0, 1.6776158148163984E9, 0.0, 2023-02-28 12:23:34.816
71.0, 26964.809234715613, -4417.688181124709, 16434.58949739808, -3409.222174790165, 15067.556806511499, 7219.5464038308155, -187500.02235174447, -187500.02235174447, -0.212, -0.778, -0.606, 192.0, 0.0, 0.0, 0.0, 0.0, 0.0, 0.0, 0.0, 0.0, 0.0, 1.6776158148204143E9, 0.0, 2023-02-28 12:23:34.820
72.0, 26974.018153431196, -4416.660000879765, 16509.60195179009, -3409.0433608345224, 15108.616961075899, 7231.012848736388, -187500.02235174447, -187500.02235174447, -0.212, -0.778, -0.606, 192.0, 0.0, 0.0, 0.0, 0.0, 0.0, 0.0, 0.0, 0.0, 0.0, 1.6776158148255246E9, 0.0, 2023-02-28 12:23:34.825
73.0, 26937.629513457956, -4414.178957245226, 16355.620784237479, -3406.4282067332515, 15031.078759560438, 7157.162685056053, -187500.02235174447, -187500.02235174447, -0.212, -0.778, -0.606, 192.0, 0.0, 0.0, 0.0, 0.0, 0.0, 0.0, 0.0, 0.0, 0.0, 1.6776158148294313E9, 0.0, 2023-02-28 12:23:34.829
74.0, 26916.17183878086, -4411.429692677223, 16258.413047601349, -3405.3776747438524, 14984.363613648846, 7135.928527823512, -187500.02235174447, -187500.02235174447, -0.212, -0.778, -0.606, 192.0, 0.0, 0.0, 0.0, 0.0, 0.0, 0.0, 0.0, 0.0, 0.0, 1.6776158148324406E9, 0.0, 2023-02-28 12:23:34.832
75.0, 26938.90356289191, -4409.261573465058, 16396.658587057424, -3406.539965455528, 15056.22447207266, 7203.274333867352, -187500.02235174447, -187500.02235174447, -0.212, -0.778, -0.606, 192.0, 0.0, 0.0, 0.0, 0.0, 0.0, 0.0, 0.0, 0.0, 0.0, 1.6776158148363905E9, 0.0, 2023-02-28 12:23:34.836
76.0, 26961.747045725235, -4408.166337986749, 16511.099518668594, -3405.847061377414, 15116.529478613076, 7236.176101705564, -187500.02235174447, -187500.02235174447, -0.212, -0.778, -0.606, 192.0, 0.0, 0.0, 0.0, 0.0, 0.0, 0.0, 0.0, 0.0, 0.0, 1.677615814840474E9, 0.0, 2023-02-28 12:23:34.840
77.0, 26964.38455157096, -4408.903945553773, 16384.454534584827, -3403.8577561208913, 15050.681239447742, 7170.350214284685, -187500.02235174447, -187500.02235174447, -0.212, -0.778, -0.606, 192.0, 0.0, 0.0, 0.0, 0.0, 0.0, 0.0, 0.0, 0.0, 0.0, 1.6776158148444612E9, 0.0, 2023-02-28 12:23:34.844
78.0, 26950.52647000867, -4409.440387420701, 16255.440265588793, -3403.7012939097044, 14982.553122347967, 7128.463045175439, -187500.02235174447, -187500.02235174447, -0.20600000000000002, -0.776, -0.604, 192.0, 249.0, 144.0, 231.0, 192.0, 237.0, 32.0, 0.0, 0.0, 0.0, 1.6776158148484724E9, 0.0, 2023-02-28 12:23:34.848
79.0, 26951.308781064607, -4407.898117053284, 16361.476941284769, -3405.7129509106817, 15035.59381194041, 7186.845801692701, -187500.02235174447, -187500.02235174447, -0.20600000000000002, -0.776, -0.604, 192.0, 0.0, 0.0, 0.0, 0.0, 0.0, 0.0, 0.0, 0.0, 0.0, 1.6776158148534288E9, 0.0, 2023-02-28 12:23:34.853
80.0, 26956.360275311505, -4406.400550174779, 16506.405652332982, -3405.5341369550392, 15112.75203380013, 7239.238290695941, -187500.02235174447, -187500.02235174447, -0.20600000000000002, -0.776, -0.604, 192.0, 0.0, 0.0, 0.0, 0.0, 0.0, 0.0, 0.0, 0.0, 0.0, 1.6776158148575153E9, 0.0, 2023-02-28 12:23:34.857
81.0, 26935.260228545696, -4405.171204229737, 16413.802375054645, -3402.874279364858, 15070.239015846137, 7183.493040024405, -187500.02235174447, -187500.02235174447, -0.20600000000000002, -0.776, -0.604, 192.0, 0.0, 0.0, 0.0, 0.0, 0.0, 0.0, 0.0, 0.0, 0.0, 1.6776158148605137E9, 0.0, 2023-02-28 12:23:34.860
82.0, 26922.81030688409, -4404.433596662712, 16257.161349911852, -3401.644933419816, 14991.337357918903, 7123.255088717353, -187500.02235174447, -187500.02235174447, -0.20600000000000002, -0.776, -0.604, 192.0, 0.0, 0.0, 0.0, 0.0, 0.0, 0.0, 0.0, 0.0, 0.0, 1.6776158148645267E9, 0.0, 2023-02-28 12:23:34.864
83.0, 26954.19215609934, -4404.366541429346, 16326.98819959023, -3403.4330729762405, 15027.100149047394, 7171.758374185369, -187500.02235174447, -187500.02235174447, -0.20600000000000002, -0.776, -0.604, 192.0, 0.0, 0.0, 0.0, 0.0, 0.0, 0.0, 0.0, 0.0, 0.0, 1.677615814868502E9, 0.0, 2023-02-28 12:23:34.868
84.0, 26972.028848174676, -4401.974904772628, 16494.380413816027, -3403.231907276143, 15112.37205414439, 7239.14888371812, -187500.02235174447, -187500.02235174447, -0.20600000000000002, -0.776, -0.604, 192.0, 0.0, 0.0, 0.0, 0.0, 0.0, 0.0, 0.0, 0.0, 0.0, 1.677615814872462E9, 0.0, 2023-02-28 12:23:34.872
85.0, 26957.746083467733, -4402.891326295296, 16443.82076785812, -3402.091968308922, 15085.79582998703, 7200.681531510536, -187500.02235174447, -187500.02235174447, -0.20600000000000002, -0.776, -0.604, 192.0, 0.0, 0.0, 0.0, 0.0, 0.0, 0.0, 0.0, 0.0, 0.0, 1.6776158148764503E9, 0.0, 2023-02-28 12:23:34.876
86.0, 26928.91233312039, -4406.467605408145, 16273.321661153039, -3401.019084575067, 14996.813535310452, 7133.402780700062, -187500.02235174447, -187500.02235174447, -0.20600000000000002, -0.776, -0.604, 192.0, 0.0, 0.0, 0.0, 0.0, 0.0, 0.0, 0.0, 0.0, 0.0, 1.6776158148815322E9, 0.0, 2023-02-28 12:23:34.881
87.0, 26939.395301269928, -4406.422901919234, 16299.22733297674, -3401.4884712086287, 15013.487936674112, 7161.342461269196, -187500.02235174447, -187500.02235174447, -0.20600000000000002, -0.776, -0.604, 192.0, 0.0, 0.0, 0.0, 0.0, 0.0, 0.0, 0.0, 0.0, 0.0, 1.6776158148845077E9, 0.0, 2023-02-28 12:23:34.884
88.0, 26972.945269697342, -4406.780529830519, 16473.39212577249, -3402.8072241314917, 15102.93961798425, 7231.884566770144, -187500.02235174447, -187500.02235174447, -0.21, -0.78, -0.606, 192.0, 249.0, 112.0, 231.0, 160.0, 237.0, 16.0, 0.0, 0.0, 0.0, 1.6776158148874962E9, 0.0, 2023-02-28 12:23:34.887
89.0, 26957.388455556447, -4405.1265007408265, 16465.613718702047, -3400.773215386059, 15100.302112138525, 7211.656238038092, -187500.02235174447, -187500.02235174447, -0.21, -0.78, -0.606, 192.0, 0.0, 0.0, 0.0, 0.0, 0.0, 0.0, 0.0, 0.0, 0.0, 1.67761581489351E9, 0.0, 2023-02-28 12:23:34.893
90.0, 26914.89778934691, -4400.231468705114, 16290.241931705707, -3398.2027647736986, 15011.699797117686, 7142.03055405981, -187500.02235174447, -187500.02235174447, -0.21, -0.78, -0.606, 192.0, 0.0, 0.0, 0.0, 0.0, 0.0, 0.0, 0.0, 0.0, 0.0, 1.677615814897581E9, 0.0, 2023-02-28 12:23:34.897
91.0, 26918.89875160441, -4402.4889948951, 16275.26626292065, -3400.616753174872, 15002.759099335564, 7151.910025109056, -187500.02235174447, -187500.02235174447, -0.21, -0.78, -0.606, 192.0, 0.0, 0.0, 0.0, 0.0, 0.0, 0.0, 0.0, 0.0, 0.0, 1.6776158149005387E9, 0.0, 2023-02-28 12:23:34.900
92.0, 26965.368028326993, -4406.959343786161, 16446.659439403946, -3403.9471630987127, 15089.170943399782, 7225.402560878106, -187500.02235174447, -187500.02235174447, -0.21, -0.78, -0.606, 192.0, 0.0, 0.0, 0.0, 0.0, 0.0, 0.0, 0.0, 0.0, 0.0, 1.6776158149045475E9, 0.0, 2023-02-28 12:23:34.904
93.0, 26960.00360965772, -4408.725131598131, 16486.98198640132, -3403.4554247206956, 15111.969722744194, 7223.413255621584, -187500.02235174447, -187500.02235174447, -0.21, -0.78, -0.606, 192.0, 0.0, 0.0, 0.0, 0.0, 0.0, 0.0, 0.0, 0.0, 0.0, 1.677615814909524E9, 0.0, 2023-02-28 12:23:34.909
94.0, 26915.925969591855, -4409.261573465058, 16322.13787104343, -3401.8460991199136, 15027.770701381052, 7145.897405850578, -187500.02235174447, -187500.02235174447, -0.21, -0.78, -0.606, 192.0, 0.0, 0.0, 0.0, 0.0, 0.0, 0.0, 0.0, 0.0, 0.0, 1.677615814912586E9, 0.0, 2023-02-28 12:23:34.912
95.0, 26910.159219522386, -4407.853413564374, 16262.950451725776, -3401.711988653182, 14994.82423005393, 7140.443580203483, -187500.02235174447, -187500.02235174447, -0.21, -0.78, -0.606, 192.0, 0.0, 0.0, 0.0, 0.0, 0.0, 0.0, 0.0, 0.0, 0.0, 1.6776158149155393E9, 0.0, 2023-02-28 12:23:34.915
96.0, 26970.978316185276, -4407.0040472750725, 16419.300904190648, -3403.4107212317854, 15077.615091516387, 7215.880717740145, -187500.02235174447, -187500.02235174447, -0.21, -0.78, -0.606, 192.0, 0.0, 0.0, 0.0, 0.0, 0.0, 0.0, 0.0, 0.0, 0.0, 1.6776158149204752E9, 0.0, 2023-02-28 12:23:34.920
97.0, 26996.414601375414, -4409.01570427605, 16500.5941987746, -3403.1425002983215, 15120.441033892756, 7235.460845882994, -187500.02235174447, -187500.02235174447, -0.21, -0.78, -0.606, 192.0, 0.0, 0.0, 0.0, 0.0, 0.0, 0.0, 0.0, 0.0, 0.0, 1.6776158149245238E9, 0.0, 2023-02-28 12:23:34.924
98.0, 26923.81613538458, -4409.77566358753, 16352.670353969379, -3401.354360741897, 15044.020419600061, 7164.583464215215, -187500.02235174447, -187500.02235174447, -0.21, -0.78, -0.606, 192.0, 0.0, 0.0, 0.0, 0.0, 0.0, 0.0, 0.0, 0.0, 0.0, 1.67761581492855E9, 0.0, 2023-02-28 12:23:34.928
99.0, 26890.914367546367, -4408.479262409122, 16253.473312076727, -3400.7955671305144, 14990.599750351877, 7138.118998780132, -187500.02235174447, -187500.02235174447, -0.2, -0.78, -0.608, 192.0, 249.0, 192.0, 231.0, 160.0, 237.0, 0.0, 0.0, 0.0, 0.0, 1.6776158149325924E9, 0.0, 2023-02-28 12:23:34.932
100.0, 26921.04451907212, -4405.886460052307, 16386.220322396795, -3400.8626223638803, 15058.705515707197, 7208.348179858706, -187500.02235174447, -187500.02235174447, -0.2, -0.78, -0.608, 192.0, 0.0, 0.0, 0.0, 0.0, 0.0, 0.0, 0.0, 0.0, 0.0, 1.6776158149376192E9, 0.0, 2023-02-28 12:23:34.937
101.0, 26948.91714440789, -4405.193555974192, 16506.338597099613, -3401.667285164271, 15121.245696693148, 7243.954508776011, -187500.02235174447, -187500.02235174447, -0.2, -0.78, -0.608, 192.0, 0.0, 0.0, 0.0, 0.0, 0.0, 0.0, 0.0, 0.0, 0.0, 1.6776158149405231E9, 0.0, 2023-02-28 12:23:34.940
102.0, 26926.833620886046, -4407.719303097642, 16388.254331142227, -3401.8013956310033, 15060.717172708175, 7179.5144295113605, -187500.02235174447, -187500.02235174447, -0.2, -0.78, -0.608, 192.0, 0.0, 0.0, 0.0, 0.0, 0.0, 0.0, 0.0, 0.0, 0.0, 1.6776158149436357E9, 0.0, 2023-02-28 12:23:34.943
103.0, 26925.38075749645, -4407.786358331008, 16255.663783033346, -3401.644933419816, 14994.310139931458, 7133.2016149999645, -187500.02235174447, -187500.02235174447, -0.2, -0.78, -0.608, 192.0, 0.0, 0.0, 0.0, 0.0, 0.0, 0.0, 0.0, 0.0, 0.0, 1.6776158149485564E9, 0.0, 2023-02-28 12:23:34.948
104.0, 26955.0638741331, -4405.864108307852, 16356.425447037871, -3403.2095555316873, 15047.350829523903, 7188.343368571207, -187500.02235174447, -187500.02235174447, -0.2, -0.78, -0.608, 192.0, 0.0, 0.0, 0.0, 0.0, 0.0, 0.0, 0.0, 0.0, 0.0, 1.677615814952535E9, 0.0, 2023-02-28 12:23:34.952
105.0, 26959.444816046336, -4403.830099562419, 16506.003320932785, -3403.1648520427766, 15123.816147305508, 7245.519130887882, -187500.02235174447, -187500.02235174447, -0.2, -0.78, -0.608, 192.0, 0.0, 0.0, 0.0, 0.0, 0.0, 0.0, 0.0, 0.0, 0.0, 1.6776158149565785E9, 0.0, 2023-02-28 12:23:34.956
106.0, 26943.888001905445, -4401.080834994416, 16419.055035001642, -3400.2367735191315, 15082.577178785466, 7191.1373366281205, -187500.02235174447, -187500.02235174447, -0.2, -0.78, -0.608, 192.0, 0.0, 0.0, 0.0, 0.0, 0.0, 0.0, 0.0, 0.0, 0.0, 1.6776158149605613E9, 0.0, 2023-02-28 12:23:34.960
107.0, 26914.048423057608, -4401.706683839165, 16260.223538902228, -3398.962724085179, 15001.038015012506, 7130.944088809978, -187500.02235174447, -187500.02235174447, -0.2, -0.78, -0.608, 192.0, 0.0, 0.0, 0.0, 0.0, 0.0, 0.0, 0.0, 0.0, 0.0, 1.6776158149646375E9, 0.0, 2023-02-28 12:23:34.964
108.0, 26930.454603487804, -4400.834965805408, 16322.160222787885, -3399.2756485075533, 15030.788186882519, 7175.222894575942, -187500.02235174447, -187500.02235174447, -0.2, -0.78, -0.608, 192.0, 0.0, 0.0, 0.0, 0.0, 0.0, 0.0, 0.0, 0.0, 0.0, 1.67761581496958E9, 0.0, 2023-02-28 12:23:34.969
109.0, 26960.070664891085, -4400.857317549863, 16489.55243701368, -3400.0803113079446, 15115.635408834865, 7241.272299441373, -187500.02235174447, -187500.02235174447, -0.198, -0.78, -0.608, 192.0, 249.0, 208.0, 231.0, 160.0, 237.0, 0.0, 0.0, 0.0, 0.0, 1.6776158149726176E9, 0.0, 2023-02-28 12:23:34.972
110.0, 26942.882173404956, -4400.879669294318, 16445.92183183692, -3398.314523495975, 15091.316710867492, 7209.890450226123, -187500.02235174447, -187500.02235174447, -0.198, -0.78, -0.608, 192.0, 0.0, 0.0, 0.0, 0.0, 0.0, 0.0, 0.0, 0.0, 0.0, 1.6776158149776008E9, 0.0, 2023-02-28 12:23:34.977
111.0, 26911.567379423068, -4399.851489049374, 16274.595710586991, -3396.772253128559, 15005.530715648023, 7143.148141282576, -187500.02235174447, -187500.02235174447, -0.198, -0.78, -0.608, 192.0, 0.0, 0.0, 0.0, 0.0, 0.0, 0.0, 0.0, 0.0, 0.0, 1.677615814980614E9, 0.0, 2023-02-28 12:23:34.980
112.0, 26927.347711008515, -4399.091529737893, 16295.31577769706, -3397.643971162316, 15018.450023943189, 7168.025632861332, -187500.02235174447, -187500.02235174447, -0.198, -0.78, -0.608, 192.0, 0.0, 0.0, 0.0, 0.0, 0.0, 0.0, 0.0, 0.0, 0.0, 1.677615814985611E9, 0.0, 2023-02-28 12:23:34.985
113.0, 26969.525452795682, -4401.460814650156, 16469.569977470634, -3399.76738688557, 15107.722891297686, 7239.752380818413, -187500.02235174447, -187500.02235174447, -0.198, -0.78, -0.608, 192.0, 0.0, 0.0, 0.0, 0.0, 0.0, 0.0, 0.0, 0.0, 0.0, 1.6776158149896204E9, 0.0, 2023-02-28 12:23:34.989
114.0, 26978.466150577802, -4404.724169340631, 16470.821675160132, -3400.3038287524973, 15106.22532441918, 7222.273316654363, -187500.02235174447, -187500.02235174447, -0.198, -0.78, -0.608, 192.0, 0.0, 0.0, 0.0, 0.0, 0.0, 0.0, 0.0, 0.0, 0.0, 1.677615814993598E9, 0.0, 2023-02-28 12:23:34.993
115.0, 26934.589676212036, -4401.550221627977, 16298.13209749843, -3398.739206640626, 15016.371311708846, 7147.976118084922, -187500.02235174447, -187500.02235174447, -0.198, -0.78, -0.608, 192.0, 0.0, 0.0, 0.0, 0.0, 0.0, 0.0, 0.0, 0.0, 0.0, 1.677615814996582E9, 0.0, 2023-02-28 12:23:34.996
116.0, 26929.068795331576, -4397.839832048397, 16274.841579775999, -3399.1415380408216, 15006.804765081975, 7157.542664711794, -187500.02235174447, -187500.02235174447, -0.198, -0.78, -0.608, 192.0, 0.0, 0.0, 0.0, 0.0, 0.0, 0.0, 0.0, 0.0, 0.0, 1.6776158149996073E9, 0.0, 2023-02-28 12:23:34.999
117.0, 26966.686781249857, -4396.364616914346, 16443.239622502282, -3399.5215176965617, 15096.390556858845, 7232.62217433717, -187500.02235174447, -187500.02235174447, -0.198, -0.78, -0.608, 192.0, 0.0, 0.0, 0.0, 0.0, 0.0, 0.0, 0.0, 0.0, 0.0, 1.6776158150046563E9, 0.0, 2023-02-28 12:23:35.004
118.0, 26962.99874341473, -4395.2023262026705, 16485.819695689643, -3397.8451368624137, 15120.597496103943, 7233.2256714374635, -187500.02235174447, -187500.02235174447, -0.198, -0.78, -0.608, 192.0, 0.0, 0.0, 0.0, 0.0, 0.0, 0.0, 0.0, 0.0, 0.0, 1.6776158150086286E9, 0.0, 2023-02-28 12:23:35.008
119.0, 26935.32728377906, -4396.521079125533, 16320.170917531363, -3395.677017650249, 15034.856204373385, 7159.7331356684135, -187500.02235174447, -187500.02235174447, -0.21, -0.78, -0.606, 192.0, 249.0, 112.0, 231.0, 160.0, 237.0, 16.0, 0.0, 0.0, 0.0, 1.677615815012736E9, 0.0, 2023-02-28 12:23:35.012
120.0, 26937.51775473568, -4400.119709982838, 16255.17204465533, -3396.6381426618273, 14999.20517196717, 7150.904196608567, -187500.02235174447, -187500.02235174447, -0.21, -0.78, -0.606, 192.0, 0.0, 0.0, 0.0, 0.0, 0.0, 0.0, 0.0, 0.0, 0.0, 1.677615815016684E9, 0.0, 2023-02-28 12:23:35.016
121.0, 26957.120234622984, -4398.532736126511, 16408.706177318832, -3398.068654306967, 15076.475152549167, 7226.721313800969, -187500.02235174447, -187500.02235174447, -0.21, -0.78, -0.606, 192.0, 0.0, 0.0, 0.0, 0.0, 0.0, 0.0, 0.0, 0.0, 0.0, 1.6776158150217116E9, 0.0, 2023-02-28 12:23:35.021
122.0, 26957.254345089717, -4393.861221535351, 16495.676814994433, -3397.420453717763, 15123.525574627589, 7246.346145432729, -187500.02235174447, -187500.02235174447, -0.21, -0.78, -0.606, 192.0, 0.0, 0.0, 0.0, 0.0, 0.0, 0.0, 0.0, 0.0, 0.0, 1.677615815024646E9, 0.0, 2023-02-28 12:23:35.024
123.0, 26934.589676212036, -4392.877744779318, 16351.99980163572, -3395.4982036946067, 15055.039829616528, 7170.260807306863, -187500.02235174447, -187500.02235174447, -0.21, -0.78, -0.606, 192.0, 0.0, 0.0, 0.0, 0.0, 0.0, 0.0, 0.0, 0.0, 0.0, 1.6776158150277405E9, 0.0, 2023-02-28 12:23:35.027
124.0, 26933.561495967093, -4392.25189593457, 16248.779445741111, -3395.4982036946067, 15001.954436535174, 7138.230757502408, -187500.02235174447, -187500.02235174447, -0.21, -0.78, -0.606, 192.0, 0.0, 0.0, 0.0, 0.0, 0.0, 0.0, 0.0, 0.0, 0.0, 1.6776158150326455E9, 0.0, 2023-02-28 12:23:35.032
125.0, 26964.026923659676, -4390.843736033886, 16377.011403681208, -3397.509860695584, 15066.305108822002, 7204.61543853467, -187500.02235174447, -187500.02235174447, -0.21, -0.78, -0.606, 192.0, 0.0, 0.0, 0.0, 0.0, 0.0, 0.0, 0.0, 0.0, 0.0, 1.6776158150367236E9, 0.0, 2023-02-28 12:23:35.036
126.0, 26980.835435490066, -4391.9166197677405, 16500.661254007966, -3398.1133577958776, 15127.682999096276, 7245.7873518213455, -187500.02235174447, -187500.02235174447, -0.21, -0.78, -0.606, 192.0, 0.0, 0.0, 0.0, 0.0, 0.0, 0.0, 0.0, 0.0, 0.0, 1.677615815040638E9, 0.0, 2023-02-28 12:23:35.040
127.0, 26961.18825211385, -4391.536640112, 16384.588645051557, -3395.162927527777, 15067.288585578035, 7188.4998307823935, -187500.02235174447, -187500.02235174447, -0.21, -0.78, -0.606, 192.0, 0.0, 0.0, 0.0, 0.0, 0.0, 0.0, 0.0, 0.0, 0.0, 1.6776158150447147E9, 0.0, 2023-02-28 12:23:35.044
128.0, 26932.734481422245, -4390.016721489039, 16248.26535561864, -3393.7324158826373, 14998.981654522617, 7145.517426194839, -187500.02235174447, -187500.02235174447, -0.21, -0.78, -0.606, 192.0, 0.0, 0.0, 0.0, 0.0, 0.0, 0.0, 0.0, 0.0, 0.0, 1.6776158150487187E9, 0.0, 2023-02-28 12:23:35.048
129.0, 26955.734426466755, -4389.301465666469, 16344.824891665567, -3395.6099624168833, 15049.83187315844, 7199.18396463203, -187500.02235174447, -187500.02235174447, -0.20400000000000001, -0.772, -0.608, 192.0, 249.0, 160.0, 231.0, 224.0, 237.0, 0.0, 0.0, 0.0, 0.0, 1.6776158150526843E9, 0.0, 2023-02-28 12:23:35.052
130.0, 26981.438932590358, -4387.803898787964, 16496.749698728287, -3395.8781833503467, 15130.856946808928, 7250.995308279433, -187500.02235174447, -187500.02235174447, -0.20400000000000001, -0.772, -0.608, 192.0, 0.0, 0.0, 0.0, 0.0, 0.0, 0.0, 0.0, 0.0, 0.0, 1.677615815055756E9, 0.0, 2023-02-28 12:23:35.055
131.0, 26960.472996291282, -4388.697968566175, 16416.708101833832, -3394.157099027288, 15091.741394012142, 7200.659179766081, -187500.02235174447, -187500.02235174447, -0.20400000000000001, -0.772, -0.608, 192.0, 0.0, 0.0, 0.0, 0.0, 0.0, 0.0, 0.0, 0.0, 0.0, 1.6776158150617588E9, 0.0, 2023-02-28 12:23:35.061
132.0, 26933.71795817828, -4389.145003455282, 16257.586033056503, -3393.19597401571, 15008.458794171667, 7144.243376760885, -187500.02235174447, -187500.02235174447, -0.20400000000000001, -0.772, -0.608, 192.0, 0.0, 0.0, 0.0, 0.0, 0.0, 0.0, 0.0, 0.0, 0.0, 1.6776158150647423E9, 0.0, 2023-02-28 12:23:35.064
133.0, 26957.567269512092, -4390.240238933592, 16316.281713996139, -3395.76642462807, 15036.77845439654, 7185.884676681123, -187500.02235174447, -187500.02235174447, -0.20400000000000001, -0.772, -0.608, 192.0, 0.0, 0.0, 0.0, 0.0, 0.0, 0.0, 0.0, 0.0, 0.0, 1.677615815068747E9, 0.0, 2023-02-28 12:23:35.068
134.0, 26976.230976132272, -4390.933143011706, 16484.992681144795, -3397.778081629048, 15123.32440892749, 7251.732915846457, -187500.02235174447, -187500.02235174447, -0.20400000000000001, -0.772, -0.608, 192.0, 0.0, 0.0, 0.0, 0.0, 0.0, 0.0, 0.0, 0.0, 0.0, 1.6776158150727336E9, 0.0, 2023-02-28 12:23:35.072
135.0, 26957.164938111895, -4391.357826156357, 16447.419398715425, -3397.2639915065756, 15101.531458083566, 7215.120758428665, -187500.02235174447, -187500.02235174447, -0.20400000000000001, -0.772, -0.608, 192.0, 0.0, 0.0, 0.0, 0.0, 0.0, 0.0, 0.0, 0.0, 0.0, 1.6776158150767035E9, 0.0, 2023-02-28 12:23:35.076
136.0, 26928.66646393138, -4390.86608777834, 16276.339146654505, -3395.185279272232, 15013.644398885299, 7146.7020686509695, -187500.02235174447, -187500.02235174447, -0.20400000000000001, -0.772, -0.608, 192.0, 0.0, 0.0, 0.0, 0.0, 0.0, 0.0, 0.0, 0.0, 0.0, 1.6776158150807536E9, 0.0, 2023-02-28 12:23:35.080
137.0, 26952.694589220835, -4392.318951167936, 16291.471277650748, -3396.325218239453, 15019.679369888232, 7171.043118362799, -187500.02235174447, -187500.02235174447, -0.20400000000000001, -0.772, -0.608, 192.0, 0.0, 0.0, 0.0, 0.0, 0.0, 0.0, 0.0, 0.0, 0.0, 1.6776158150836973E9, 0.0, 2023-02-28 12:23:35.083
138.0, 26974.979278442777, -4392.229544190114, 16465.39020125749, -3398.158061284788, 15107.409966875312, 7241.987555263943, -187500.02235174447, -187500.02235174447, -0.20400000000000001, -0.772, -0.608, 192.0, 0.0, 0.0, 0.0, 0.0, 0.0, 0.0, 0.0, 0.0, 0.0, 1.6776158150877397E9, 0.0, 2023-02-28 12:23:35.087
139.0, 26967.80436847262, -4392.520116868033, 16473.235663561307, -3396.9063635952907, 15114.540173356554, 7224.508491099893, -187500.02235174447, -187500.02235174447, -0.202, -0.778, -0.616, 192.0, 249.0, 176.0, 231.0, 176.0, 236.0, 192.0, 0.0, 0.0, 0.0, 1.677615815092688E9, 0.0, 2023-02-28 12:23:35.092
140.0, 26940.535240237146, -4392.765986057042, 16302.490687667214, -3395.4982036946067, 15028.061274058971, 7150.568920441738, -187500.02235174447, -187500.02235174447, -0.202, -0.778, -0.616, 192.0, 0.0, 0.0, 0.0, 0.0, 0.0, 0.0, 0.0, 0.0, 0.0, 1.677615815096714E9, 0.0, 2023-02-28 12:23:35.096
141.0, 26930.253437787705, -4393.883573279807, 16275.51213210966, -3396.5934391729165, 15012.035073284516, 7157.430905989517, -187500.02235174447, -187500.02235174447, -0.202, -0.778, -0.616, 192.0, 0.0, 0.0, 0.0, 0.0, 0.0, 0.0, 0.0, 0.0, 0.0, 1.677615815100702E9, 0.0, 2023-02-28 12:23:35.100
142.0, 26955.19798459983, -4392.877744779318, 16442.300849235162, -3398.3368752404303, 15095.831763247463, 7233.203319693008, -187500.02235174447, -187500.02235174447, -0.202, -0.778, -0.616, 192.0, 0.0, 0.0, 0.0, 0.0, 0.0, 0.0, 0.0, 0.0, 0.0, 1.6776158151037457E9, 0.0, 2023-02-28 12:23:35.103
143.0, 26956.360275311505, -4394.218849446636, 16493.41928880445, -3398.091006051422, 15124.03966475006, 7235.8631772831895, -187500.02235174447, -187500.02235174447, -0.202, -0.778, -0.616, 192.0, 0.0, 0.0, 0.0, 0.0, 0.0, 0.0, 0.0, 0.0, 0.0, 1.677615815107688E9, 0.0, 2023-02-28 12:23:35.107
144.0, 26945.072644361575, -4395.112919224849, 16332.687894426334, -3396.5934391729165, 15041.78524515453, 7162.169475814042, -187500.02235174447, -187500.02235174447, -0.202, -0.778, -0.616, 192.0, 0.0, 0.0, 0.0, 0.0, 0.0, 0.0, 0.0, 0.0, 0.0, 1.677615815111797E9, 0.0, 2023-02-28 12:23:35.111
145.0, 26947.352522296016, -4396.29756168098, 16260.64822204688, -3397.733378140137, 15005.262494714558, 7147.037344817799, -187500.02235174447, -187500.02235174447, -0.202, -0.778, -0.616, 192.0, 0.0, 0.0, 0.0, 0.0, 0.0, 0.0, 0.0, 0.0, 0.0, 1.6776158151157885E9, 0.0, 2023-02-28 12:23:35.115
146.0, 26953.85687993251, -4398.018646004039, 16412.125994220496, -3400.4602909636847, 15081.750164240619, 7220.552232331304, -187500.02235174447, -187500.02235174447, -0.202, -0.778, -0.616, 192.0, 0.0, 0.0, 0.0, 0.0, 0.0, 0.0, 0.0, 0.0, 0.0, 1.677615815120728E9, 0.0, 2023-02-28 12:23:35.120
147.0, 26973.32524935308, -4399.359750671358, 16506.003320932785, -3400.1697182857656, 15128.174737474292, 7242.43459015305, -187500.02235174447, -187500.02235174447, -0.202, -0.778, -0.616, 192.0, 0.0, 0.0, 0.0, 0.0, 0.0, 0.0, 0.0, 0.0, 0.0, 1.6776158151247633E9, 0.0, 2023-02-28 12:23:35.124
148.0, 26959.690685235346, -4397.01281750355, 16363.801522708121, -3397.062825806478, 15058.929033151751, 7171.288987551808, -187500.02235174447, -187500.02235174447, -0.202, -0.778, -0.616, 192.0, 0.0, 0.0, 0.0, 0.0, 0.0, 0.0, 0.0, 0.0, 0.0, 1.6776158151287491E9, 0.0, 2023-02-28 12:23:35.128
149.0, 26945.56438273959, -4394.2635529355475, 16256.043762689087, -3395.811128116981, 15005.038977270005, 7143.12578953812, -187500.02235174447, -187500.02235174447, -0.21, -0.776, -0.61, 192.0, 249.0, 112.0, 231.0, 192.0, 236.0, 240.0, 0.0, 0.0, 0.0, 1.6776158151327388E9, 0.0, 2023-02-28 12:23:35.132
150.0, 26954.035693888152, -4392.900096523774, 16380.542979305146, -3397.509860695584, 15070.283719335046, 7208.5716973032595, -187500.02235174447, -187500.02235174447, -0.21, -0.776, -0.61, 192.0, 0.0, 0.0, 0.0, 0.0, 0.0, 0.0, 0.0, 0.0, 0.0, 1.6776158151367507E9, 0.0, 2023-02-28 12:23:35.136
151.0, 26966.10563589402, -4395.716416325142, 16509.199620389893, -3399.2980002520085, 15135.863737566917, 7247.9107675446, -187500.02235174447, -187500.02235174447, -0.21, -0.776, -0.61, 192.0, 0.0, 0.0, 0.0, 0.0, 0.0, 0.0, 0.0, 0.0, 0.0, 1.6776158151408007E9, 0.0, 2023-02-28 12:23:35.140
152.0, 26942.90452514941, -4396.789300058997, 16398.558485336125, -3397.509860695584, 15079.827914217463, 7185.102365625187, -187500.02235174447, -187500.02235174447, -0.21, -0.776, -0.61, 192.0, 0.0, 0.0, 0.0, 0.0, 0.0, 0.0, 0.0, 0.0, 0.0, 1.6776158151437519E9, 0.0, 2023-02-28 12:23:35.143
153.0, 26928.9570366093, -4394.844698291386, 16257.228405145217, -3396.6157909173717, 15007.005930782072, 7137.649612146571, -187500.02235174447, -187500.02235174447, -0.21, -0.776, -0.61, 192.0, 0.0, 0.0, 0.0, 0.0, 0.0, 0.0, 0.0, 0.0, 0.0, 1.6776158151488051E9, 0.0, 2023-02-28 12:23:35.148
154.0, 26961.367066069495, -4394.956457013662, 16349.317592301082, -3398.8509653629026, 15055.822140672462, 7187.181077859531, -187500.02235174447, -187500.02235174447, -0.21, -0.776, -0.61, 192.0, 0.0, 0.0, 0.0, 0.0, 0.0, 0.0, 0.0, 0.0, 0.0, 1.6776158151527898E9, 0.0, 2023-02-28 12:23:35.152
155.0, 26989.619671061002, -4396.185802958704, 16503.008187175776, -3399.5662211854724, 15133.002714276638, 7247.463732655494, -187500.02235174447, -187500.02235174447, -0.21, -0.776, -0.61, 192.0, 0.0, 0.0, 0.0, 0.0, 0.0, 0.0, 0.0, 0.0, 0.0, 1.6776158151568198E9, 0.0, 2023-02-28 12:23:35.156
156.0, 26967.24557486124, -4396.722244825631, 16428.420415928416, -3397.375750228852, 15094.13303066886, 7208.012903691877, -187500.02235174447, -187500.02235174447, -0.21, -0.776, -0.61, 192.0, 0.0, 0.0, 0.0, 0.0, 0.0, 0.0, 0.0, 0.0, 0.0, 1.6776158151598155E9, 0.0, 2023-02-28 12:23:35.159
157.0, 26931.66159768839, -4400.209116960659, 16269.03012621762, -3398.739206640626, 15008.950532549685, 7145.830350617212, -187500.02235174447, -187500.02235174447, -0.21, -0.776, -0.61, 192.0, 0.0, 0.0, 0.0, 0.0, 0.0, 0.0, 0.0, 0.0, 0.0, 1.6776158151637764E9, 0.0, 2023-02-28 12:23:35.163
158.0, 26952.38166479846, -4400.499689638578, 16322.003760576697, -3401.421415975263, 15032.062236316471, 7181.034348134322, -187500.02235174447, -187500.02235174447, -0.21, -0.776, -0.61, 192.0, 0.0, 0.0, 0.0, 0.0, 0.0, 0.0, 0.0, 0.0, 0.0, 1.6776158151677916E9, 0.0, 2023-02-28 12:23:35.167
159.0, 26988.211511160316, -4399.560916371455, 16489.574788758135, -3401.332008997442, 15120.4186821483, 7248.089581500242, -187500.02235174447, -187500.02235174447, -0.212, -0.776, -0.606, 192.0, 249.0, 96.0, 231.0, 192.0, 237.0, 16.0, 0.0, 0.0, 0.0, 1.6776158151718123E9, 0.0, 2023-02-28 12:23:35.171
160.0, 26982.95885121332, -4396.342265169891, 16456.11422730854, -3397.129881039844, 15107.834650019962, 7219.233479408441, -187500.02235174447, -187500.02235174447, -0.212, -0.776, -0.606, 192.0, 0.0, 0.0, 0.0, 0.0, 0.0, 0.0, 0.0, 0.0, 0.0, 1.677615815176776E9, 0.0, 2023-02-28 12:23:35.176
161.0, 26942.47984200476, -4396.498727381078, 16283.424649646837, -3395.6993693947043, 15017.578305909432, 7146.7020686509695, -187500.02235174447, -187500.02235174447, -0.212, -0.776, -0.606, 192.0, 0.0, 0.0, 0.0, 0.0, 0.0, 0.0, 0.0, 0.0, 0.0, 1.6776158151808538E9, 0.0, 2023-02-28 12:23:35.180
162.0, 26946.0114176287, -4397.862183792851, 16291.56068462857, -3397.398101973308, 15018.382968709824, 7169.724365439936, -187500.02235174447, -187500.02235174447, -0.212, -0.776, -0.606, 192.0, 0.0, 0.0, 0.0, 0.0, 0.0, 0.0, 0.0, 0.0, 0.0, 1.6776158151848E9, 0.0, 2023-02-28 12:23:35.184
163.0, 26975.426313331882, -4400.164413471748, 16465.725477424323, -3400.1026630523997, 15106.001806974627, 7247.150808233119, -187500.02235174447, -187500.02235174447, -0.212, -0.776, -0.606, 192.0, 0.0, 0.0, 0.0, 0.0, 0.0, 0.0, 0.0, 0.0, 0.0, 1.6776158151877968E9, 0.0, 2023-02-28 12:23:35.187
164.0, 26956.7626067117, -4399.247991949081, 16478.756544441767, -3398.3368752404303, 15117.334141413468, 7232.421008637072, -187500.02235174447, -187500.02235174447, -0.212, -0.776, -0.606, 192.0, 0.0, 0.0, 0.0, 0.0, 0.0, 0.0, 0.0, 0.0, 0.0, 1.6776158151918752E9, 0.0, 2023-02-28 12:23:35.191
165.0, 26924.978426096255, -4400.209116960659, 16307.363367958471, -3396.5934391729165, 15029.02239907055, 7155.3298420107185, -187500.02235174447, -187500.02235174447, -0.212, -0.776, -0.606, 192.0, 0.0, 0.0, 0.0, 0.0, 0.0, 0.0, 0.0, 0.0, 0.0, 1.6776158151958437E9, 0.0, 2023-02-28 12:23:35.195
166.0, 26934.366158767483, -4403.986561773606, 16274.26043442016, -3398.8286136184474, 15008.615256382855, 7157.3862025006065, -187500.02235174447, -187500.02235174447, -0.212, -0.776, -0.606, 192.0, 0.0, 0.0, 0.0, 0.0, 0.0, 0.0, 0.0, 0.0, 0.0, 1.6776158151998782E9, 0.0, 2023-02-28 12:23:35.199
167.0, 26979.159054655916, -4405.260611207558, 16440.557413167648, -3401.287305508531, 15093.306016124014, 7231.8175115367785, -187500.02235174447, -187500.02235174447, -0.212, -0.776, -0.606, 192.0, 0.0, 0.0, 0.0, 0.0, 0.0, 0.0, 0.0, 0.0, 0.0, 1.6776158152038786E9, 0.0, 2023-02-28 12:23:35.203
168.0, 26970.03954291815, -4404.075968751427, 16496.392070817004, -3399.7897386300256, 15124.821975805997, 7238.612441851193, -187500.02235174447, -187500.02235174447, -0.212, -0.776, -0.606, 192.0, 0.0, 0.0, 0.0, 0.0, 0.0, 0.0, 0.0, 0.0, 0.0, 1.6776158152089446E9, 0.0, 2023-02-28 12:23:35.208
169.0, 26958.886022434956, -4400.611448360854, 16338.09701658452, -3396.6604944062824, 15046.88144289034, 7164.1364293261095, -187500.02235174447, -187500.02235174447, -0.20400000000000001, -0.784, -0.61, 192.0, 249.0, 160.0, 231.0, 128.0, 236.0, 240.0, 0.0, 0.0, 0.0, 1.6776158152129197E9, 0.0, 2023-02-28 12:23:35.212
170.0, 26934.388510511937, -4400.097358238382, 16261.765809269646, -3396.5934391729165, 15008.838773827407, 7146.880882606612, -187500.02235174447, -187500.02235174447, -0.20400000000000001, -0.784, -0.61, 192.0, 0.0, 0.0, 0.0, 0.0, 0.0, 0.0, 0.0, 0.0, 0.0, 1.67761581521584E9, 0.0, 2023-02-28 12:23:35.215
171.0, 26945.13969959494, -4400.790262316497, 16409.264970930217, -3398.716854896171, 15083.94063519724, 7217.624153807659, -187500.02235174447, -187500.02235174447, -0.20400000000000001, -0.784, -0.61, 192.0, 0.0, 0.0, 0.0, 0.0, 0.0, 0.0, 0.0, 0.0, 0.0, 1.6776158152198253E9, 0.0, 2023-02-28 12:23:35.219
172.0, 26971.67122026339, -4400.432634405212, 16506.964445944363, -3397.375750228852, 15134.924964299795, 7246.524959388371, -187500.02235174447, -187500.02235174447, -0.20400000000000001, -0.784, -0.61, 192.0, 0.0, 0.0, 0.0, 0.0, 0.0, 0.0, 0.0, 0.0, 0.0, 1.6776158152238424E9, 0.0, 2023-02-28 12:23:35.223
173.0, 26955.890888677943, -4401.282000694514, 16370.57410127808, -3395.76642462807, 15064.204044843204, 7177.905103910578, -187500.02235174447, -187500.02235174447, -0.20400000000000001, -0.784, -0.61, 192.0, 0.0, 0.0, 0.0, 0.0, 0.0, 0.0, 0.0, 0.0, 0.0, 1.6776158152279053E9, 0.0, 2023-02-28 12:23:35.227
174.0, 26943.15039433842, -4401.863146050352, 16256.557852811558, -3395.967590328168, 15003.831983069418, 7143.639879660593, -187500.02235174447, -187500.02235174447, -0.20400000000000001, -0.784, -0.61, 192.0, 0.0, 0.0, 0.0, 0.0, 0.0, 0.0, 0.0, 0.0, 0.0, 1.67761581523186E9, 0.0, 2023-02-28 12:23:35.231
175.0, 26947.9113159074, -4401.639628605799, 16376.318499603094, -3398.0463025625113, 15065.589852999432, 7207.4541100804945, -187500.02235174447, -187500.02235174447, -0.20400000000000001, -0.784, -0.61, 192.0, 0.0, 0.0, 0.0, 0.0, 0.0, 0.0, 0.0, 0.0, 0.0, 1.677615815236868E9, 0.0, 2023-02-28 12:23:35.236
176.0, 26972.14060689695, -4401.773739072531, 16508.41730933396, -3398.158061284788, 15135.640220122365, 7252.157598991108, -187500.02235174447, -187500.02235174447, -0.20400000000000001, -0.784, -0.61, 192.0, 0.0, 0.0, 0.0, 0.0, 0.0, 0.0, 0.0, 0.0, 0.0, 1.6776158152408402E9, 0.0, 2023-02-28 12:23:35.240
177.0, 26958.751911968222, -4401.840794305896, 16401.06188071512, -3395.7217211391594, 15080.766687484585, 7192.2549238508855, -187500.02235174447, -187500.02235174447, -0.20400000000000001, -0.784, -0.61, 192.0, 0.0, 0.0, 0.0, 0.0, 0.0, 0.0, 0.0, 0.0, 0.0, 1.6776158152439415E9, 0.0, 2023-02-28 12:23:35.243
178.0, 26933.762661667188, -4401.751387328075, 16258.278937134617, -3395.0511688055003, 15005.933047048218, 7141.114132537143, -187500.02235174447, -187500.02235174447, -0.20400000000000001, -0.784, -0.61, 192.0, 0.0, 0.0, 0.0, 0.0, 0.0, 0.0, 0.0, 0.0, 0.0, 1.6776158152479653E9, 0.0, 2023-02-28 12:23:35.247
179.0, 26925.447812729813, -4404.098320495882, 16345.8083684216, -3397.9568955846903, 15048.647230702309, 7192.7243104844465, -187500.02235174447, -187500.02235174447, -0.194, -0.782, -0.61, 192.0, 249.0, 240.0, 231.0, 144.0, 236.0, 240.0, 0.0, 0.0, 0.0, 1.6776158152519047E9, 0.0, 2023-02-28 12:23:35.251
180.0, 26943.440967016337, -4402.444291406189, 16503.142297642506, -3398.068654306967, 15131.438092164766, 7255.018622281387, -187500.02235174447, -187500.02235174447, -0.194, -0.782, -0.61, 192.0, 0.0, 0.0, 0.0, 0.0, 0.0, 0.0, 0.0, 0.0, 0.0, 1.67761581525595E9, 0.0, 2023-02-28 12:23:35.255
181.0, 26945.922010650876, -4399.1362332268045, 16434.053055531152, -3395.0511688055003, 15099.251580149124, 7208.839918236723, -187500.02235174447, -187500.02235174447, -0.194, -0.782, -0.61, 192.0, 0.0, 0.0, 0.0, 0.0, 0.0, 0.0, 0.0, 0.0, 0.0, 1.6776158152599113E9, 0.0, 2023-02-28 12:23:35.259
182.0, 26937.42834775786, -4398.666846593243, 16268.069001206042, -3393.57595367145, 15015.633704141821, 7146.836179117701, -187500.02235174447, -187500.02235174447, -0.194, -0.782, -0.61, 192.0, 0.0, 0.0, 0.0, 0.0, 0.0, 0.0, 0.0, 0.0, 0.0, 1.6776158152648623E9, 0.0, 2023-02-28 12:23:35.264
183.0, 26962.976391670276, -4399.695026838187, 16313.733615128234, -3395.6546659057935, 15038.365428252868, 7185.907028425579, -187500.02235174447, -187500.02235174447, -0.194, -0.782, -0.61, 192.0, 0.0, 0.0, 0.0, 0.0, 0.0, 0.0, 0.0, 0.0, 0.0, 1.6776158152689283E9, 0.0, 2023-02-28 12:23:35.268
184.0, 26972.811159230612, -4400.767910572042, 16485.059736378164, -3397.420453717763, 15125.939563028762, 7256.493837415438, -187500.02235174447, -187500.02235174447, -0.194, -0.782, -0.61, 192.0, 0.0, 0.0, 0.0, 0.0, 0.0, 0.0, 0.0, 0.0, 0.0, 1.6776158152719529E9, 0.0, 2023-02-28 12:23:35.271
185.0, 26947.151356595918, -4400.410282660757, 16459.24347153228, -3396.2134595171765, 15112.595571588943, 7228.420046379572, -187500.02235174447, -187500.02235174447, -0.194, -0.782, -0.61, 192.0, 0.0, 0.0, 0.0, 0.0, 0.0, 0.0, 0.0, 0.0, 0.0, 1.6776158152759075E9, 0.0, 2023-02-28 12:23:35.275
186.0, 26928.398242997915, -4399.985599516106, 16286.8444665485, -3395.3417414834194, 15021.802785611486, 7156.648594933581, -187500.02235174447, -187500.02235174447, -0.194, -0.782, -0.61, 192.0, 0.0, 0.0, 0.0, 0.0, 0.0, 0.0, 0.0, 0.0, 0.0, 1.6776158152799325E9, 0.0, 2023-02-28 12:23:35.279
187.0, 26946.212583328794, -4401.751387328075, 16291.94066428431, -3397.8898403513244, 15024.239125757114, 7174.485287008916, -187500.02235174447, -187500.02235174447, -0.194, -0.782, -0.61, 192.0, 0.0, 0.0, 0.0, 0.0, 0.0, 0.0, 0.0, 0.0, 0.0, 1.6776158152839031E9, 0.0, 2023-02-28 12:23:35.283
188.0, 26975.918051709898, -4402.712512339654, 16466.59719545808, -3399.8344421189363, 15115.166022201303, 7245.586186121248, -187500.02235174447, -187500.02235174447, -0.194, -0.782, -0.61, 192.0, 0.0, 0.0, 0.0, 0.0, 0.0, 0.0, 0.0, 0.0, 0.0, 1.6776158152880106E9, 0.0, 2023-02-28 12:23:35.288
189.0, 26961.121196880486, -4402.578401872922, 16488.099573624084, -3398.962724085179, 15126.721874084697, 7235.505549371905, -187500.02235174447, -187500.02235174447, -0.192, -0.782, -0.608, 192.0, 250.0, 0.0, 231.0, 144.0, 237.0, 0.0, 0.0, 0.0, 0.0, 1.6776158152929072E9, 0.0, 2023-02-28 12:23:35.292
190.0, 26914.47310620226, -4402.734864084108, 16318.047501808109, -3397.1745845287546, 15038.097207319404, 7162.482400236417, -187500.02235174447, -187500.02235174447, -0.192, -0.782, -0.608, 192.0, 0.0, 0.0, 0.0, 0.0, 0.0, 0.0, 0.0, 0.0, 0.0, 1.6776158152969935E9, 0.0, 2023-02-28 12:23:35.296
191.0, 26917.84821961501, -4405.104148996371, 16276.853236776977, -3398.8733171073577, 15015.20902099717, 7162.594158958693, -187500.02235174447, -187500.02235174447, -0.192, -0.782, -0.608, 192.0, 0.0, 0.0, 0.0, 0.0, 0.0, 0.0, 0.0, 0.0, 0.0, 1.677615815299956E9, 0.0, 2023-02-28 12:23:35.299
192.0, 26969.90543245142, -4406.713474597153, 16442.233794001793, -3401.063788063978, 15099.877428993874, 7233.873872026667, -187500.02235174447, -187500.02235174447, -0.192, -0.782, -0.608, 192.0, 0.0, 0.0, 0.0, 0.0, 0.0, 0.0, 0.0, 0.0, 0.0, 1.6776158153039749E9, 0.0, 2023-02-28 12:23:35.303
193.0, 26968.899603950933, -4405.752349585575, 16506.025672677242, -3400.4602909636847, 15134.075598010493, 7241.808741308301, -187500.02235174447, -187500.02235174447, -0.192, -0.782, -0.608, 192.0, 0.0, 0.0, 0.0, 0.0, 0.0, 0.0, 0.0, 0.0, 0.0, 1.6776158153080497E9, 0.0, 2023-02-28 12:23:35.308
194.0, 26930.298141276617, -4405.260611207558, 16347.641211466935, -3397.5992676734054, 15053.11757959337, 7171.110173596165, -187500.02235174447, -187500.02235174447, -0.192, -0.782, -0.608, 192.0, 0.0, 0.0, 0.0, 0.0, 0.0, 0.0, 0.0, 0.0, 0.0, 1.6776158153119435E9, 0.0, 2023-02-28 12:23:35.311
195.0, 26910.628606155948, -4406.735826341609, 16263.21867265924, -3398.068654306967, 15009.151698249781, 7153.429943732017, -187500.02235174447, -187500.02235174447, -0.192, -0.782, -0.608, 192.0, 0.0, 0.0, 0.0, 0.0, 0.0, 0.0, 0.0, 0.0, 0.0, 1.6776158153159409E9, 0.0, 2023-02-28 12:23:35.315
196.0, 26933.71795817828, -4407.071102508438, 16408.505011618738, -3399.6332764188382, 15083.828876474963, 7224.62024982217, -187500.02235174447, -187500.02235174447, -0.192, -0.782, -0.608, 192.0, 0.0, 0.0, 0.0, 0.0, 0.0, 0.0, 0.0, 0.0, 0.0, 1.677615815320954E9, 0.0, 2023-02-28 12:23:35.320
197.0, 26962.082321892063, -4406.333494941413, 16513.088823925118, -3399.342703740919, 15138.836519579474, 7255.3538984482175, -187500.02235174447, -187500.02235174447, -0.192, -0.782, -0.608, 192.0, 0.0, 0.0, 0.0, 0.0, 0.0, 0.0, 0.0, 0.0, 0.0, 1.6776158153239925E9, 0.0, 2023-02-28 12:23:35.323
198.0, 26933.09210933353, -4404.992390274095, 16378.799543237632, -3396.8616601063804, 15070.17196061277, 7186.085842381221, -187500.02235174447, -187500.02235174447, -0.192, -0.782, -0.608, 192.0, 0.0, 0.0, 0.0, 0.0, 0.0, 0.0, 0.0, 0.0, 0.0, 1.6776158153279495E9, 0.0, 2023-02-28 12:23:35.327
199.0, 26914.629568413446, -4402.868974550841, 16257.362515611949, -3396.5263839395507, 15008.436442427212, 7146.545606439782, -187500.02235174447, -187500.02235174447, -0.192, -0.782, -0.616, 192.0, 250.0, 0.0, 231.0, 144.0, 236.0, 192.0, 0.0, 0.0, 0.0, 1.67761581533196E9, 0.0, 2023-02-28 12:23:35.331
200.0, 26937.964789624788, -4401.639628605799, 16373.85980771301, -3398.001599073601, 15067.623861744865, 7209.398711848106, -187500.02235174447, -187500.02235174447, -0.192, -0.782, -0.616, 192.0, 0.0, 0.0, 0.0, 0.0, 0.0, 0.0, 0.0, 0.0, 0.0, 1.6776158153359563E9, 0.0, 2023-02-28 12:23:35.335
201.0, 26965.122159137984, -4402.891326295296, 16512.977065202842, -3398.8733171073577, 15137.115435256415, 7253.275186213874, -187500.02235174447, -187500.02235174447, -0.192, -0.782, -0.616, 192.0, 0.0, 0.0, 0.0, 0.0, 0.0, 0.0, 0.0, 0.0, 0.0, 1.67761581534001E9, 0.0, 2023-02-28 12:23:35.340
202.0, 26964.831586460066, -4403.427768162223, 16411.544848864658, -3397.867488606869, 15084.208856130703, 7194.870077952156, -187500.02235174447, -187500.02235174447, -0.192, -0.782, -0.616, 192.0, 0.0, 0.0, 0.0, 0.0, 0.0, 0.0, 0.0, 0.0, 0.0, 1.677615815344028E9, 0.0, 2023-02-28 12:23:35.344
203.0, 26927.392414497426, -4401.796090816986, 16261.74345752519, -3396.2134595171765, 15008.458794171667, 7145.5844814282045, -187500.02235174447, -187500.02235174447, -0.192, -0.782, -0.616, 192.0, 0.0, 0.0, 0.0, 0.0, 0.0, 0.0, 0.0, 0.0, 0.0, 1.6776158153490424E9, 0.0, 2023-02-28 12:23:35.349
204.0, 26934.03088260065, -4402.06431175045, 16341.047446852619, -3396.839308361925, 15048.960155124683, 7200.145089643609, -187500.02235174447, -187500.02235174447, -0.192, -0.782, -0.616, 192.0, 0.0, 0.0, 0.0, 0.0, 0.0, 0.0, 0.0, 0.0, 0.0, 1.6776158153519957E9, 0.0, 2023-02-28 12:23:35.351
205.0, 26960.249478846727, -4403.472471651134, 16503.142297642506, -3397.800433373503, 15131.885127053873, 7259.108991516709, -187500.02235174447, -187500.02235174447, -0.192, -0.782, -0.616, 192.0, 0.0, 0.0, 0.0, 0.0, 0.0, 0.0, 0.0, 0.0, 0.0, 1.6776158153550155E9, 0.0, 2023-02-28 12:23:35.355
206.0, 26958.818967201587, -4403.5395268844995, 16440.95974456784, -3396.6157909173717, 15103.721929040186, 7210.873926982156, -187500.02235174447, -187500.02235174447, -0.192, -0.782, -0.616, 192.0, 0.0, 0.0, 0.0, 0.0, 0.0, 0.0, 0.0, 0.0, 0.0, 1.6776158153600695E9, 0.0, 2023-02-28 12:23:35.360
207.0, 26923.592617940023, -4404.746521085086, 16273.74634429769, -3396.392273472819, 15016.863050086862, 7145.606833172659, -187500.02235174447, -187500.02235174447, -0.192, -0.782, -0.616, 192.0, 0.0, 0.0, 0.0, 0.0, 0.0, 0.0, 0.0, 0.0, 0.0, 1.6776158153640735E9, 0.0, 2023-02-28 12:23:35.364
208.0, 26912.819077112566, -4405.77470133003, 16314.828850606544, -3398.3368752404303, 15037.158434052282, 7185.459993536472, -187500.02235174447, -187500.02235174447, -0.192, -0.782, -0.616, 192.0, 0.0, 0.0, 0.0, 0.0, 0.0, 0.0, 0.0, 0.0, 0.0, 1.677615815368054E9, 0.0, 2023-02-28 12:23:35.368
209.0, 26938.18830706934, -4404.321837940435, 16487.741945712798, -3399.1638897852768, 15127.459481651722, 7261.433572940061, -187500.02235174447, -187500.02235174447, -0.19, -0.778, -0.618, 192.0, 250.0, 16.0, 231.0, 176.0, 236.0, 176.0, 0.0, 0.0, 0.0, 1.677615815372016E9, 0.0, 2023-02-28 12:23:35.372
210.0, 26939.305894292105, -4401.594925116888, 16467.11128558055, -3398.023950818056, 15118.630542591876, 7232.041028981332, -187500.02235174447, -187500.02235174447, -0.19, -0.778, -0.618, 192.0, 0.0, 0.0, 0.0, 0.0, 0.0, 0.0, 0.0, 0.0, 0.0, 1.6776158153770704E9, 0.0, 2023-02-28 12:23:35.377
211.0, 26923.57026619557, -4400.969076272139, 16291.60538811748, -3396.2581630060868, 15026.4966519471, 7159.5543217127715, -187500.02235174447, -187500.02235174447, -0.19, -0.778, -0.618, 192.0, 0.0, 0.0, 0.0, 0.0, 0.0, 0.0, 0.0, 0.0, 0.0, 1.677615815380021E9, 0.0, 2023-02-28 12:23:35.380
212.0, 26933.159164566896, -4401.773739072531, 16287.626777604435, -3397.8451368624137, 15022.808614111975, 7175.155839342576, -187500.02235174447, -187500.02235174447, -0.19, -0.778, -0.618, 192.0, 0.0, 0.0, 0.0, 0.0, 0.0, 0.0, 0.0, 0.0, 0.0, 1.6776158153850136E9, 0.0, 2023-02-28 12:23:35.385
213.0, 26964.00457191522, -4401.416111161246, 16461.59040470009, -3398.739206640626, 15112.439109377756, 7250.928253046067, -187500.02235174447, -187500.02235174447, -0.19, -0.778, -0.618, 192.0, 0.0, 0.0, 0.0, 0.0, 0.0, 0.0, 0.0, 0.0, 0.0, 1.6776158153890953E9, 0.0, 2023-02-28 12:23:35.389
214.0, 26961.076493391574, -4399.672675093731, 16488.345442813094, -3397.6216194178605, 15129.940525286262, 7240.534691874349, -187500.02235174447, -187500.02235174447, -0.19, -0.778, -0.618, 192.0, 0.0, 0.0, 0.0, 0.0, 0.0, 0.0, 0.0, 0.0, 0.0, 1.677615815392058E9, 0.0, 2023-02-28 12:23:35.392
215.0, 26921.75977489469, -4397.951590770673, 16318.025150063653, -3395.028817061045, 15042.92518412175, 7165.343423526696, -187500.02235174447, -187500.02235174447, -0.19, -0.778, -0.618, 192.0, 0.0, 0.0, 0.0, 0.0, 0.0, 0.0, 0.0, 0.0, 0.0, 1.677615815396062E9, 0.0, 2023-02-28 12:23:35.396
216.0, 26924.285522018137, -4398.510384382055, 16270.572396585036, -3396.2581630060868, 15015.141965763803, 7162.974138614433, -187500.02235174447, -187500.02235174447, -0.19, -0.778, -0.618, 192.0, 0.0, 0.0, 0.0, 0.0, 0.0, 0.0, 0.0, 0.0, 0.0, 1.677615815400112E9, 0.0, 2023-02-28 12:23:35.400
217.0, 26955.466205533292, -4400.745558827586, 16436.757616610244, -3398.9850758296343, 15099.296283638036, 7238.299517428818, -187500.02235174447, -187500.02235174447, -0.19, -0.778, -0.618, 192.0, 0.0, 0.0, 0.0, 0.0, 0.0, 0.0, 0.0, 0.0, 0.0, 1.677615815406098E9, 0.0, 2023-02-28 12:23:35.406
218.0, 26957.76843521219, -4400.544393127489, 16508.97610294534, -3398.2474682626093, 15136.578993389487, 7253.498703658427, -187500.02235174447, -187500.02235174447, -0.19, -0.778, -0.618, 192.0, 0.0, 0.0, 0.0, 0.0, 0.0, 0.0, 0.0, 0.0, 0.0, 1.6776158154090488E9, 0.0, 2023-02-28 12:23:35.409
219.0, 26928.88998137593, -4398.465680893145, 16352.29037431364, -3396.034645561534, 15058.16907384027, 7180.6320167341255, -187500.02235174447, -187500.02235174447, -0.198, -0.772, -0.616, 192.0, 249.0, 208.0, 231.0, 224.0, 236.0, 192.0, 0.0, 0.0, 0.0, 1.6776158154130435E9, 0.0, 2023-02-28 12:23:35.413
220.0, 26924.643149929423, -4398.018646004039, 16263.062210448054, -3396.056997305989, 15011.342169206402, 7157.944996111989, -187500.02235174447, -187500.02235174447, -0.198, -0.772, -0.616, 192.0, 0.0, 0.0, 0.0, 0.0, 0.0, 0.0, 0.0, 0.0, 0.0, 1.6776158154161043E9, 0.0, 2023-02-28 12:23:35.416
221.0, 26936.66838844638, -4397.683369837209, 16405.733395306277, -3396.995770573112, 15083.605359030409, 7229.425874880061, -187500.02235174447, -187500.02235174447, -0.198, -0.772, -0.616, 192.0, 0.0, 0.0, 0.0, 0.0, 0.0, 0.0, 0.0, 0.0, 0.0, 1.677615815420068E9, 0.0, 2023-02-28 12:23:35.420
222.0, 26955.84618518903, -4396.655189592265, 16517.782690260734, -3394.827651360947, 15141.80930159203, 7265.814514853301, -187500.02235174447, -187500.02235174447, -0.198, -0.772, -0.616, 192.0, 0.0, 0.0, 0.0, 0.0, 0.0, 0.0, 0.0, 0.0, 0.0, 1.6776158154240997E9, 0.0, 2023-02-28 12:23:35.424
223.0, 26955.980295655765, -4393.01185524605, 16388.14257241995, -3390.6925786367156, 15075.60343451541, 7199.228668120942, -187500.02235174447, -187500.02235174447, -0.198, -0.772, -0.616, 192.0, 0.0, 0.0, 0.0, 0.0, 0.0, 0.0, 0.0, 0.0, 0.0, 1.677615815428197E9, 0.0, 2023-02-28 12:23:35.428
224.0, 26948.29129556314, -4394.487070380101, 16265.990288971698, -3392.0783867929445, 15010.716320361653, 7158.727307167925, -187500.02235174447, -187500.02235174447, -0.198, -0.772, -0.616, 192.0, 0.0, 0.0, 0.0, 0.0, 0.0, 0.0, 0.0, 0.0, 0.0, 1.677615815432127E9, 0.0, 2023-02-28 12:23:35.432
225.0, 26951.040560131143, -4397.72807332612, 16382.062897928108, -3397.286343251031, 15066.998012900116, 7219.009961963888, -187500.02235174447, -187500.02235174447, -0.198, -0.772, -0.616, 192.0, 0.0, 0.0, 0.0, 0.0, 0.0, 0.0, 0.0, 0.0, 0.0, 1.6776158154360735E9, 0.0, 2023-02-28 12:23:35.436
226.0, 26953.074568876575, -4398.465680893145, 16525.561097331178, -3399.745035141115, 15141.004638791639, 7266.641529398147, -187500.02235174447, -187500.02235174447, -0.198, -0.772, -0.616, 192.0, 0.0, 0.0, 0.0, 0.0, 0.0, 0.0, 0.0, 0.0, 0.0, 1.677615815439082E9, 0.0, 2023-02-28 12:23:35.439
227.0, 26934.70143493431, -4397.124576225827, 16425.939372293877, -3397.509860695584, 15092.970739957183, 7208.012903691877, -187500.02235174447, -187500.02235174447, -0.198, -0.772, -0.616, 192.0, 0.0, 0.0, 0.0, 0.0, 0.0, 0.0, 0.0, 0.0, 0.0, 1.677615815444088E9, 0.0, 2023-02-28 12:23:35.444
228.0, 26909.689832888824, -4397.079872736916, 16271.287652407605, -3396.48168045064, 15013.510288418567, 7154.078144321221, -187500.02235174447, -187500.02235174447, -0.198, -0.772, -0.616, 192.0, 0.0, 0.0, 0.0, 0.0, 0.0, 0.0, 0.0, 0.0, 0.0, 1.6776158154481246E9, 0.0, 2023-02-28 12:23:35.448
229.0, 26925.559571452093, -4396.588134358899, 16347.484749255747, -3397.934543840235, 15050.927108636752, 7202.961409444977, -187500.02235174447, -187500.02235174447, -0.198, -0.774, -0.614, 192.0, 249.0, 208.0, 231.0, 208.0, 236.0, 208.0, 0.0, 0.0, 0.0, 1.6776158154520905E9, 0.0, 2023-02-28 12:23:35.452
230.0, 26958.059007890108, -4396.834003547908, 16514.56403905917, -3399.052131063, 15136.243717222658, 7265.501590430927, -187500.02235174447, -187500.02235174447, -0.198, -0.774, -0.614, 192.0, 0.0, 0.0, 0.0, 0.0, 0.0, 0.0, 0.0, 0.0, 0.0, 1.6776158154581473E9, 0.0, 2023-02-28 12:23:35.458
231.0, 26956.04735088913, -4396.498727381078, 16457.03064883121, -3396.995770573112, 15107.767594786597, 7224.217918421975, -187500.02235174447, -187500.02235174447, -0.198, -0.774, -0.614, 192.0, 0.0, 0.0, 0.0, 0.0, 0.0, 0.0, 0.0, 0.0, 0.0, 1.6776158154611318E9, 0.0, 2023-02-28 12:23:35.461
232.0, 26932.37685351096, -4399.7844338160085, 16285.615120603457, -3397.040474062023, 15019.277038488037, 7155.441600732995, -187500.02235174447, -187500.02235174447, -0.198, -0.774, -0.614, 192.0, 0.0, 0.0, 0.0, 0.0, 0.0, 0.0, 0.0, 0.0, 0.0, 1.6776158154641669E9, 0.0, 2023-02-28 12:23:35.464
233.0, 26929.113498820487, -4401.863146050352, 16319.813289620077, -3399.5662211854724, 15036.219660785158, 7186.778746459335, -187500.02235174447, -187500.02235174447, -0.198, -0.774, -0.614, 192.0, 0.0, 0.0, 0.0, 0.0, 0.0, 0.0, 0.0, 0.0, 0.0, 1.6776158154671452E9, 0.0, 2023-02-28 12:23:35.467
234.0, 26959.735388724257, -4402.3101809394575, 16496.5932365171, -3400.9520293417013, 15129.202917719236, 7259.712488617002, -187500.02235174447, -187500.02235174447, -0.198, -0.774, -0.614, 192.0, 0.0, 0.0, 0.0, 0.0, 0.0, 0.0, 0.0, 0.0, 0.0, 1.6776158154721453E9, 0.0, 2023-02-28 12:23:35.472
235.0, 26952.58283049856, -4402.153718728271, 16483.78568694421, -3398.8733171073577, 15124.352589172435, 7234.767941804879, -187500.02235174447, -187500.02235174447, -0.198, -0.774, -0.614, 192.0, 0.0, 0.0, 0.0, 0.0, 0.0, 0.0, 0.0, 0.0, 0.0, 1.6776158154761565E9, 0.0, 2023-02-28 12:23:35.476
236.0, 26925.917199363375, -4404.232430962615, 16306.581056902536, -3397.5769159289503, 15030.698779904698, 7159.956653112967, -187500.02235174447, -187500.02235174447, -0.198, -0.774, -0.614, 192.0, 0.0, 0.0, 0.0, 0.0, 0.0, 0.0, 0.0, 0.0, 0.0, 1.677615815481171E9, 0.0, 2023-02-28 12:23:35.481
237.0, 26931.41572849938, -4407.96517228665, 16297.573303887048, -3399.9462008412124, 15022.942724578706, 7173.5241619973385, -187500.02235174447, -187500.02235174447, -0.198, -0.774, -0.614, 192.0, 0.0, 0.0, 0.0, 0.0, 0.0, 0.0, 0.0, 0.0, 0.0, 1.6776158154852643E9, 0.0, 2023-02-28 12:23:35.485
238.0, 26948.47010951878, -4408.63572462031, 16474.01797461724, -3402.0696165644667, 15112.148536699837, 7248.178988478064, -187500.02235174447, -187500.02235174447, -0.198, -0.774, -0.614, 192.0, 0.0, 0.0, 0.0, 0.0, 0.0, 0.0, 0.0, 0.0, 0.0, 1.6776158154881313E9, 0.0, 2023-02-28 12:23:35.488
239.0, 26944.33503679455, -4405.797053074486, 16508.059681422674, -3399.968552585668, 15131.974534031695, 7241.831093052757, -187500.02235174447, -187500.02235174447, -0.198, -0.774, -0.614, 192.0, 0.0, 0.0, 0.0, 0.0, 0.0, 0.0, 0.0, 0.0, 0.0, 1.6776158154921505E9, 0.0, 2023-02-28 12:23:35.492
240.0, 26919.9045801049, -4403.561878628955, 16335.683028183346, -3396.9734188286566, 15046.099131834404, 7163.801153159279, -187500.02235174447, -187500.02235174447, -0.202, -0.77, -0.61, 192.0, 249.0, 176.0, 231.0, 240.0, 236.0, 240.0, 0.0, 0.0, 0.0, 1.6776158154952087E9, 0.0, 2023-02-28 12:23:35.495
241.0, 26913.243760257217, -4403.316009439946, 16280.697736823291, -3397.2416397621205, 15015.186669252715, 7158.928472868022, -187500.02235174447, -187500.02235174447, -0.202, -0.77, -0.61, 192.0, 0.0, 0.0, 0.0, 0.0, 0.0, 0.0, 0.0, 0.0, 0.0, 1.6776158154991531E9, 0.0, 2023-02-28 12:23:35.499
242.0, 26941.585772226546, -4403.427768162223, 16443.26197424674, -3398.7839101295367, 15097.642254548342, 7237.137226717142, -187500.02235174447, -187500.02235174447, -0.202, -0.77, -0.61, 192.0, 0.0, 0.0, 0.0, 0.0, 0.0, 0.0, 0.0, 0.0, 0.0, 1.6776158155041606E9, 0.0, 2023-02-28 12:23:35.504
243.0, 26951.442891531336, -4404.657114107265, 16522.767129274267, -3399.1638897852768, 15137.651877123342, 7255.108029259209, -187500.02235174447, -187500.02235174447, -0.202, -0.77, -0.61, 192.0, 0.0, 0.0, 0.0, 0.0, 0.0, 0.0, 0.0, 0.0, 0.0, 1.6776158155082057E9, 0.0, 2023-02-28 12:23:35.508
244.0, 26927.9065046199, -4404.657114107265, 16368.294223343639, -3397.286343251031, 15056.64915521731, 7183.336577813217, -187500.02235174447, -187500.02235174447, -0.202, -0.77, -0.61, 192.0, 0.0, 0.0, 0.0, 0.0, 0.0, 0.0, 0.0, 0.0, 0.0, 1.6776158155122705E9, 0.0, 2023-02-28 12:23:35.512
245.0, 26914.294292246617, -4406.914640297251, 16271.310004152061, -3398.381578729341, 15005.597770881388, 7157.363850756151, -187500.02235174447, -187500.02235174447, -0.202, -0.77, -0.61, 192.0, 0.0, 0.0, 0.0, 0.0, 0.0, 0.0, 0.0, 0.0, 0.0, 1.6776158155153065E9, 0.0, 2023-02-28 12:23:35.515
246.0, 26940.311722792594, -4408.658076364765, 16413.24358144326, -3400.907325852791, 15078.442106061233, 7225.33550564474, -187500.02235174447, -187500.02235174447, -0.202, -0.77, -0.61, 192.0, 0.0, 0.0, 0.0, 0.0, 0.0, 0.0, 0.0, 0.0, 0.0, 1.6776158155192208E9, 0.0, 2023-02-28 12:23:35.519
247.0, 26957.120234622984, -4408.479262409122, 16530.858460767085, -3401.5555264419945, 15141.496377169655, 7258.281976971863, -187500.02235174447, -187500.02235174447, -0.202, -0.77, -0.61, 192.0, 0.0, 0.0, 0.0, 0.0, 0.0, 0.0, 0.0, 0.0, 0.0, 1.6776158155232484E9, 0.0, 2023-02-28 12:23:35.523
248.0, 26933.963827367286, -4407.4734339086335, 16401.508915604223, -3398.8286136184474, 15078.330347338957, 7189.237438349419, -187500.02235174447, -187500.02235174447, -0.202, -0.77, -0.61, 192.0, 0.0, 0.0, 0.0, 0.0, 0.0, 0.0, 0.0, 0.0, 0.0, 1.67761581552733E9, 0.0, 2023-02-28 12:23:35.527
249.0, 26913.981367824243, -4407.96517228665, 16269.521864595637, -3398.515689196073, 15009.755195350075, 7147.037344817799, -187500.02235174447, -187500.02235174447, -0.202, -0.77, -0.61, 192.0, 0.0, 0.0, 0.0, 0.0, 0.0, 0.0, 0.0, 0.0, 0.0, 1.6776158155322647E9, 0.0, 2023-02-28 12:23:35.532
250.0, 26931.594542455023, -4410.4685676656445, 16381.727621761278, -3401.354360741897, 15065.187521599237, 7207.610572291681, -187500.02235174447, -187500.02235174447, -0.198, -0.78, -0.614, 192.0, 249.0, 208.0, 231.0, 160.0, 236.0, 208.0, 0.0, 0.0, 0.0, 1.6776158155362585E9, 0.0, 2023-02-28 12:23:35.536
251.0, 26950.32530430857, -4411.966134544151, 16531.12668170055, -3402.0696165644667, 15143.016295792617, 7258.170218249586, -187500.02235174447, -187500.02235174447, -0.198, -0.78, -0.614, 192.0, 0.0, 0.0, 0.0, 0.0, 0.0, 0.0, 0.0, 0.0, 0.0, 1.677615815540239E9, 0.0, 2023-02-28 12:23:35.540
252.0, 26926.163068552385, -4412.703742111175, 16436.86937533252, -3400.415587474774, 15094.870638235885, 7200.770938488357, -187500.02235174447, -187500.02235174447, -0.198, -0.78, -0.614, 192.0, 0.0, 0.0, 0.0, 0.0, 0.0, 0.0, 0.0, 0.0, 0.0, 1.6776158155432386E9, 0.0, 2023-02-28 12:23:35.543
253.0, 26899.452733928294, -4413.486053167111, 16277.948472255288, -3399.5885729299275, 15010.358692450369, 7142.254071504363, -187500.02235174447, -187500.02235174447, -0.198, -0.78, -0.614, 192.0, 0.0, 0.0, 0.0, 0.0, 0.0, 0.0, 0.0, 0.0, 0.0, 1.6776158155472877E9, 0.0, 2023-02-28 12:23:35.547
254.0, 26915.769507380668, -4414.737750856609, 16350.703400457312, -3401.354360741897, 15044.802730655996, 7189.393900560606, -187500.02235174447, -187500.02235174447, -0.198, -0.78, -0.614, 192.0, 0.0, 0.0, 0.0, 0.0, 0.0, 0.0, 0.0, 0.0, 0.0, 1.6776158155512912E9, 0.0, 2023-02-28 12:23:35.551
255.0, 26937.8083274136, -4416.950573557684, 16527.192774676416, -3402.8072241314917, 15136.221365478203, 7257.544369404837, -187500.02235174447, -187500.02235174447, -0.198, -0.78, -0.614, 192.0, 0.0, 0.0, 0.0, 0.0, 0.0, 0.0, 0.0, 0.0, 0.0, 1.677615815555285E9, 0.0, 2023-02-28 12:23:35.555
0.0, 26919.412841726884, -4418.202271247181, 16482.01989913224, -3401.2426020196203, 15115.590705345954, 7221.1333776871425, -187500.02235174447, -187500.02235174447, -0.198, -0.78, -0.614, 192.0, 0.0, 0.0, 0.0, 0.0, 0.0, 0.0, 0.0, 0.0, 0.0, 1.6776158155602517E9, 0.0, 2023-02-28 12:23:35.560
1.0, 26888.83565531202, -4415.944745057195, 16292.164181728862, -3397.6663229067713, 15018.651189643288, 7146.098571550677, -187500.02235174447, -187500.02235174447, -0.198, -0.78, -0.614, 192.0, 0.0, 0.0, 0.0, 0.0, 0.0, 0.0, 0.0, 0.0, 0.0, 1.677615815564304E9, 0.0, 2023-02-28 12:23:35.564
2.0, 26893.19424548081, -4412.457872922168, 16309.263266237173, -3395.4982036946067, 15027.904811847784, 7175.826391676234, -187500.02235174447, -187500.02235174447, -0.198, -0.78, -0.614, 192.0, 0.0, 0.0, 0.0, 0.0, 0.0, 0.0, 0.0, 0.0, 0.0, 1.6776158155682657E9, 0.0, 2023-02-28 12:23:35.568
3.0, 26928.398242997915, -4411.675561866232, 16519.168498416962, -3395.811128116981, 15135.796682333552, 7264.6298723971695, -187500.02235174447, -187500.02235174447, -0.198, -0.78, -0.614, 192.0, 0.0, 0.0, 0.0, 0.0, 0.0, 0.0, 0.0, 0.0, 0.0, 1.6776158155712368E9, 0.0, 2023-02-28 12:23:35.571
4.0, 26921.022167327665, -4414.201308989681, 16538.79333004872, -3395.0511688055003, 15145.89967082735, 7249.363630934195, -187500.02235174447, -187500.02235174447, -0.196, -0.774, -0.612, 192.0, 249.0, 224.0, 231.0, 208.0, 236.0, 224.0, 0.0, 0.0, 0.0, 1.6776158155752563E9, 0.0, 2023-02-28 12:23:35.575
5.0, 26878.196224951294, -4414.670695623243, 16314.94060932882, -3391.9219245817576, 15033.425692728246, 7153.184074543009, -187500.02235174447, -187500.02235174447, -0.196, -0.774, -0.612, 192.0, 0.0, 0.0, 0.0, 0.0, 0.0, 0.0, 0.0, 0.0, 0.0, 1.677615815579262E9, 0.0, 2023-02-28 12:23:35.579
6.0, 26866.372152134438, -4415.296544467991, 16261.922271480833, -3392.48071819314, 15005.128384247826, 7156.089801322199, -187500.02235174447, -187500.02235174447, -0.196, -0.774, -0.612, 192.0, 0.0, 0.0, 0.0, 0.0, 0.0, 0.0, 0.0, 0.0, 0.0, 1.6776158155833197E9, 0.0, 2023-02-28 12:23:35.583
7.0, 26895.56353039307, -4417.5093671690665, 16482.154009598973, -3395.6099624168833, 15117.222382691192, 7256.851465326723, -187500.02235174447, -187500.02235174447, -0.196, -0.774, -0.612, 192.0, 0.0, 0.0, 0.0, 0.0, 0.0, 0.0, 0.0, 0.0, 0.0, 1.6776158155872433E9, 0.0, 2023-02-28 12:23:35.587
8.0, 26888.388620422917, -4422.985544560617, 16568.521150174278, -3396.436976961729, 15160.09302855647, 7267.513247431904, -187500.02235174447, -187500.02235174447, -0.196, -0.774, -0.612, 192.0, 0.0, 0.0, 0.0, 0.0, 0.0, 0.0, 0.0, 0.0, 0.0, 1.6776158155922763E9, 0.0, 2023-02-28 12:23:35.592
9.0, 26843.17104138983, -4425.220719006147, 16352.71505745829, -3394.470023449662, 15051.061219103483, 7162.974138614433, -187500.02235174447, -187500.02235174447, -0.196, -0.774, -0.612, 192.0, 0.0, 0.0, 0.0, 0.0, 0.0, 0.0, 0.0, 0.0, 0.0, 1.6776158155962756E9, 0.0, 2023-02-28 12:23:35.596
10.0, 26819.701709711757, -4429.489902197111, 16237.581221769004, -3396.705197895193, 14990.510343374055, 7137.3143359797405, -187500.02235174447, -187500.02235174447, -0.196, -0.774, -0.612, 192.0, 0.0, 0.0, 0.0, 0.0, 0.0, 0.0, 0.0, 0.0, 0.0, 1.6776158155993092E9, 0.0, 2023-02-28 12:23:35.599
11.0, 26848.088425169997, -4434.139065043815, 16438.143424766473, -3402.2707822645643, 15088.969777699684, 7232.108084214698, -187500.02235174447, -187500.02235174447, -0.196, -0.774, -0.612, 192.0, 0.0, 0.0, 0.0, 0.0, 0.0, 0.0, 0.0, 0.0, 0.0, 1.6776158156032665E9, 0.0, 2023-02-28 12:23:35.603
12.0, 26855.79977700708, -4437.134198800826, 16581.79808638073, -3403.343665998419, 15160.09302855647, 7267.557950920815, -187500.02235174447, -187500.02235174447, -0.196, -0.774, -0.612, 192.0, 0.0, 0.0, 0.0, 0.0, 0.0, 0.0, 0.0, 0.0, 0.0, 1.677615815607267E9, 0.0, 2023-02-28 12:23:35.607
13.0, 26815.92426489881, -4437.581233689933, 16398.469078358303, -3400.5273461970505, 15065.83572218844, 7173.166534086054, -187500.02235174447, -187500.02235174447, -0.196, -0.774, -0.612, 192.0, 0.0, 0.0, 0.0, 0.0, 0.0, 0.0, 0.0, 0.0, 0.0, 1.6776158156113324E9, 0.0, 2023-02-28 12:23:35.611
14.0, 26776.764008613114, -4441.761009903074, 16233.02146590012, -3400.2367735191315, 14979.62504382432, 7123.523309650816, -187500.02235174447, -187500.02235174447, -0.194, -0.778, -0.61, 192.0, 249.0, 240.0, 231.0, 176.0, 236.0, 240.0, 0.0, 0.0, 0.0, 1.6776158156162744E9, 0.0, 2023-02-28 12:23:35.616
15.0, 26810.44808750726, -4442.87859712584, 16394.356357378525, -3402.606058431394, 15062.371201797869, 7209.465767081472, -187500.02235174447, -187500.02235174447, -0.194, -0.778, -0.61, 192.0, 0.0, 0.0, 0.0, 0.0, 0.0, 0.0, 0.0, 0.0, 0.0, 1.677615815620307E9, 0.0, 2023-02-28 12:23:35.620
16.0, 26823.50150626916, -4446.946614616706, 16585.061441071208, -3403.880107865347, 15158.617813422421, 7272.34122423425, -187500.02235174447, -187500.02235174447, -0.194, -0.778, -0.61, 192.0, 0.0, 0.0, 0.0, 0.0, 0.0, 0.0, 0.0, 0.0, 0.0, 1.6776158156243076E9, 0.0, 2023-02-28 12:23:35.624
17.0, 26776.696953379746, -4450.791114663019, 16445.027762058708, -3402.248430520109, 15087.874542221374, 7192.5454965288045, -187500.02235174447, -187500.02235174447, -0.194, -0.778, -0.61, 192.0, 0.0, 0.0, 0.0, 0.0, 0.0, 0.0, 0.0, 0.0, 0.0, 1.6776158156274052E9, 0.0, 2023-02-28 12:23:35.627
18.0, 26749.47252863318, -4451.461666996678, 16235.703675234758, -3401.2426020196203, 14981.591997336389, 7118.270649703819, -187500.02235174447, -187500.02235174447, -0.194, -0.778, -0.61, 192.0, 0.0, 0.0, 0.0, 0.0, 0.0, 0.0, 0.0, 0.0, 0.0, 1.6776158156313074E9, 0.0, 2023-02-28 12:23:35.631
19.0, 26760.715456094204, -4455.842608909918, 16348.021191122674, -3404.86358462138, 15037.113730563371, 7187.605761004182, -187500.02235174447, -187500.02235174447, -0.194, -0.778, -0.61, 192.0, 0.0, 0.0, 0.0, 0.0, 0.0, 0.0, 0.0, 0.0, 0.0, 1.677615815637298E9, 0.0, 2023-02-28 12:23:35.637
20.0, 26784.63182266138, -4458.6589287112865, 16574.109086288106, -3406.7187794111705, 15154.259223253635, 7271.313043989307, -187500.02235174447, -187500.02235174447, -0.194, -0.778, -0.61, 192.0, 0.0, 0.0, 0.0, 0.0, 0.0, 0.0, 0.0, 0.0, 0.0, 1.677615815640286E9, 0.0, 2023-02-28 12:23:35.640
21.0, 26757.228583959175, -4460.424716523256, 16486.82552419013, -3405.645895677316, 15110.762728543608, 7210.672761282059, -187500.02235174447, -187500.02235174447, -0.194, -0.778, -0.61, 192.0, 0.0, 0.0, 0.0, 0.0, 0.0, 0.0, 0.0, 0.0, 0.0, 1.6776158156433644E9, 0.0, 2023-02-28 12:23:35.643
22.0, 26709.038222913532, -4462.54813224651, 16251.014620186643, -3404.930639854746, 14987.917541017241, 7122.025742772311, -187500.02235174447, -187500.02235174447, -0.194, -0.778, -0.61, 192.0, 0.0, 0.0, 0.0, 0.0, 0.0, 0.0, 0.0, 0.0, 0.0, 1.6776158156483898E9, 0.0, 2023-02-28 12:23:35.648
23.0, 26723.2092288982, -4463.464553769178, 16303.407109189882, -3406.964648600179, 15011.565686650954, 7173.479458508427, -187500.02235174447, -187500.02235174447, -0.194, -0.778, -0.61, 192.0, 0.0, 0.0, 0.0, 0.0, 0.0, 0.0, 0.0, 0.0, 0.0, 1.6776158156524067E9, 0.0, 2023-02-28 12:23:35.652
24.0, 26754.479319391172, -4465.766783448074, 16548.829263309155, -3409.0210090900673, 15135.461406166722, 7273.168238779097, -187500.02235174447, -187500.02235174447, -0.198, -0.778, -0.604, 192.0, 249.0, 208.0, 231.0, 176.0, 237.0, 32.0, 0.0, 0.0, 0.0, 1.6776158156553452E9, 0.0, 2023-02-28 12:23:35.655
25.0, 26746.18682219825, -4466.3479288039125, 16526.186946175927, -3406.808186388992, 15122.855022293928, 7237.807779050801, -187500.02235174447, -187500.02235174447, -0.198, -0.778, -0.604, 192.0, 0.0, 0.0, 0.0, 0.0, 0.0, 0.0, 0.0, 0.0, 0.0, 1.6776158156593132E9, 0.0, 2023-02-28 12:23:35.659
26.0, 26694.598995995402, -4469.723042216664, 16271.757039041167, -3404.8859363658353, 14989.996253251584, 7131.7934550992795, -187500.02235174447, -187500.02235174447, -0.198, -0.778, -0.604, 192.0, 0.0, 0.0, 0.0, 0.0, 0.0, 0.0, 0.0, 0.0, 0.0, 1.677615815663341E9, 0.0, 2023-02-28 12:23:35.663
27.0, 26706.177199623253, -4468.538399760532, 16261.810512758555, -3406.316448010975, 14983.000157237073, 7157.788533900802, -187500.02235174447, -187500.02235174447, -0.198, -0.778, -0.604, 192.0, 0.0, 0.0, 0.0, 0.0, 0.0, 0.0, 0.0, 0.0, 0.0, 1.677615815667339E9, 0.0, 2023-02-28 12:23:35.667
28.0, 26750.456005389216, -4469.320710816469, 16520.08491993963, -3409.155119556799, 15115.680112323775, 7269.547256177338, -187500.02235174447, -187500.02235174447, -0.198, -0.778, -0.604, 192.0, 0.0, 0.0, 0.0, 0.0, 0.0, 0.0, 0.0, 0.0, 0.0, 1.6776158156713955E9, 0.0, 2023-02-28 12:23:35.671
29.0, 26747.840851287947, -4471.5111817730885, 16564.207263494405, -3408.797491645514, 15139.305906213034, 7260.427744439572, -187500.02235174447, -187500.02235174447, -0.198, -0.778, -0.604, 192.0, 0.0, 0.0, 0.0, 0.0, 0.0, 0.0, 0.0, 0.0, 0.0, 1.677615815676322E9, 0.0, 2023-02-28 12:23:35.676
30.0, 26703.42793505525, -4472.114678873382, 16305.217600490761, -3406.539965455528, 15007.095337759894, 7145.428019217017, -187500.02235174447, -187500.02235174447, -0.198, -0.778, -0.604, 192.0, 0.0, 0.0, 0.0, 0.0, 0.0, 0.0, 0.0, 0.0, 0.0, 1.677615815680374E9, 0.0, 2023-02-28 12:23:35.680
31.0, 26692.296766316507, -4473.969873663173, 16230.294553076572, -3407.7022561672043, 14964.403505850258, 7140.331821481207, -187500.02235174447, -187500.02235174447, -0.198, -0.778, -0.604, 192.0, 0.0, 0.0, 0.0, 0.0, 0.0, 0.0, 0.0, 0.0, 0.0, 1.6776158156835504E9, 0.0, 2023-02-28 12:23:35.683
32.0, 26733.06634820299, -4478.753146976608, 16482.4892857658, -3413.2454887921203, 15089.617978288887, 7253.208130980508, -187500.02235174447, -187500.02235174447, -0.198, -0.778, -0.604, 192.0, 0.0, 0.0, 0.0, 0.0, 0.0, 0.0, 0.0, 0.0, 0.0, 1.677615815688423E9, 0.0, 2023-02-28 12:23:35.688
33.0, 26737.58140058296, -4481.770632478075, 16593.10806907512, -3413.9160411257794, 15147.799569106051, 7272.944721334544, -187500.02235174447, -187500.02235174447, -0.198, -0.778, -0.604, 192.0, 0.0, 0.0, 0.0, 0.0, 0.0, 0.0, 0.0, 0.0, 0.0, 1.6776158156913853E9, 0.0, 2023-02-28 12:23:35.691
34.0, 26690.486275015628, -4483.558772034499, 16353.85499642551, -3411.9043841248017, 15027.949515336695, 7157.274443778329, -187500.02235174447, -187500.02235174447, -0.198, -0.784, -0.602, 192.0, 249.0, 208.0, 231.0, 128.0, 237.0, 48.0, 0.0, 0.0, 0.0, 1.6776158156954548E9, 0.0, 2023-02-28 12:23:35.695
35.0, 26678.058705098476, -4485.078690657459, 16213.620151712914, -3413.223137047665, 14957.988555191585, 7122.092798005677, -187500.02235174447, -187500.02235174447, -0.198, -0.784, -0.602, 192.0, 0.0, 0.0, 0.0, 0.0, 0.0, 0.0, 0.0, 0.0, 0.0, 1.677615815699404E9, 0.0, 2023-02-28 12:23:35.699
36.0, 26715.900208461313, -4489.146708148326, 16432.86841307502, -3417.58172721645, 15067.489751278134, 7232.488063870438, -187500.02235174447, -187500.02235174447, -0.198, -0.784, -0.602, 192.0, 0.0, 0.0, 0.0, 0.0, 0.0, 0.0, 0.0, 0.0, 0.0, 1.677615815704354E9, 0.0, 2023-02-28 12:23:35.704
37.0, 26733.222810414176, -4491.806565738508, 16603.32281629119, -3418.9451836282237, 15152.80635986404, 7282.444212728049, -187500.02235174447, -187500.02235174447, -0.198, -0.784, -0.602, 192.0, 0.0, 0.0, 0.0, 0.0, 0.0, 0.0, 0.0, 0.0, 0.0, 1.677615815708438E9, 0.0, 2023-02-28 12:23:35.708
38.0, 26707.76417347958, -4487.000940680617, 16402.33593014907, -3414.1395585703326, 15052.134102837337, 7179.335615555718, -187500.02235174447, -187500.02235174447, -0.198, -0.784, -0.602, 192.0, 0.0, 0.0, 0.0, 0.0, 0.0, 0.0, 0.0, 0.0, 0.0, 1.6776158157114131E9, 0.0, 2023-02-28 12:23:35.711
39.0, 26681.299708044495, -4486.933885447251, 16208.389843510371, -3413.5360614700394, 14952.95941268914, 7116.840138058679, -187500.02235174447, -187500.02235174447, -0.198, -0.784, -0.602, 192.0, 0.0, 0.0, 0.0, 0.0, 0.0, 0.0, 0.0, 0.0, 0.0, 1.6776158157154481E9, 0.0, 2023-02-28 12:23:35.715
40.0, 26705.841923456424, -4490.152536648815, 16384.05220318463, -3418.185224316743, 15040.019457342562, 7211.097444426709, -187500.02235174447, -187500.02235174447, -0.198, -0.784, -0.602, 192.0, 0.0, 0.0, 0.0, 0.0, 0.0, 0.0, 0.0, 0.0, 0.0, 1.6776158157193904E9, 0.0, 2023-02-28 12:23:35.719
41.0, 26728.260723145097, -4494.064091928493, 16603.233409313372, -3421.180358073754, 15150.749999374153, 7281.840715627756, -187500.02235174447, -187500.02235174447, -0.198, -0.784, -0.602, 192.0, 0.0, 0.0, 0.0, 0.0, 0.0, 0.0, 0.0, 0.0, 0.0, 1.67761581572341E9, 0.0, 2023-02-28 12:23:35.723
42.0, 26691.626213982847, -4495.315789617991, 16454.05786681865, -3418.520500483573, 15074.865826948384, 7193.104290140187, -187500.02235174447, -187500.02235174447, -0.198, -0.784, -0.602, 192.0, 0.0, 0.0, 0.0, 0.0, 0.0, 0.0, 0.0, 0.0, 0.0, 1.677615815727438E9, 0.0, 2023-02-28 12:23:35.727
43.0, 26655.55049843198, -4495.539307062543, 16215.20712556924, -3416.665305693782, 14951.953584188652, 7112.50389963435, -187500.02235174447, -187500.02235174447, -0.198, -0.784, -0.602, 192.0, 0.0, 0.0, 0.0, 0.0, 0.0, 0.0, 0.0, 0.0, 0.0, 1.6776158157324076E9, 0.0, 2023-02-28 12:23:35.732
44.0, 26683.624289467847, -4493.237077383647, 16330.117443813973, -3417.894651638824, 15011.096300017394, 7190.846763950201, -187500.02235174447, -187500.02235174447, -0.212, -0.788, -0.61, 192.0, 249.0, 96.0, 231.0, 96.0, 236.0, 240.0, 0.0, 0.0, 0.0, 1.6776158157364907E9, 0.0, 2023-02-28 12:23:35.736
45.0, 26726.91961847778, -4490.756033749108, 16583.742688148344, -3417.939355127735, 15141.228156236191, 7287.741576163957, -187500.02235174447, -187500.02235174447, -0.212, -0.788, -0.61, 192.0, 0.0, 0.0, 0.0, 0.0, 0.0, 0.0, 0.0, 0.0, 0.0, 1.6776158157394168E9, 0.0, 2023-02-28 12:23:35.739
46.0, 26696.23067334064, -4498.757958264107, 16500.482440052325, -3418.162872572288, 15095.876466736374, 7217.221822407463, -187500.02235174447, -187500.02235174447, -0.212, -0.788, -0.61, 192.0, 0.0, 0.0, 0.0, 0.0, 0.0, 0.0, 0.0, 0.0, 0.0, 1.6776158157434165E9, 0.0, 2023-02-28 12:23:35.743
47.0, 26649.292009984496, -4503.228307155169, 16234.921364178821, -3417.157044071799, 14960.469598826123, 7111.45336764495, -187500.02235174447, -187500.02235174447, -0.212, -0.788, -0.61, 192.0, 0.0, 0.0, 0.0, 0.0, 0.0, 0.0, 0.0, 0.0, 0.0, 1.6776158157474284E9, 0.0, 2023-02-28 12:23:35.747
48.0, 26664.200623536188, -4503.071844943982, 16285.995100259199, -3418.878128394858, 14985.458849127157, 7162.571807214237, -187500.02235174447, -187500.02235174447, -0.212, -0.788, -0.61, 192.0, 0.0, 0.0, 0.0, 0.0, 0.0, 0.0, 0.0, 0.0, 0.0, 1.67761581575141E9, 0.0, 2023-02-28 12:23:35.751
49.0, 26715.699042761215, -4498.154461163815, 16557.166463990983, -3418.587555716939, 15124.352589172435, 7275.693985902547, -187500.02235174447, -187500.02235174447, -0.212, -0.788, -0.61, 192.0, 0.0, 0.0, 0.0, 0.0, 0.0, 0.0, 0.0, 0.0, 0.0, 1.6776158157554092E9, 0.0, 2023-02-28 12:23:35.755
50.0, 26706.065440900977, -4493.505298317111, 16540.335600416136, -3414.363076014886, 15118.474080380689, 7241.808741308301, -187500.02235174447, -187500.02235174447, -0.212, -0.788, -0.61, 192.0, 0.0, 0.0, 0.0, 0.0, 0.0, 0.0, 0.0, 0.0, 0.0, 1.6776158157605267E9, 0.0, 2023-02-28 12:23:35.760
51.0, 26666.70401891518, -4491.337179104946, 16265.230329660219, -3411.345590513419, 14979.714450802143, 7125.132635251598, -187500.02235174447, -187500.02235174447, -0.212, -0.788, -0.61, 192.0, 0.0, 0.0, 0.0, 0.0, 0.0, 0.0, 0.0, 0.0, 0.0, 1.6776158157634964E9, 0.0, 2023-02-28 12:23:35.763
52.0, 26672.60487945138, -4494.801699495519, 16248.086541662997, -3413.9830963591453, 14968.806799507953, 7146.724420395425, -187500.02235174447, -187500.02235174447, -0.212, -0.788, -0.61, 192.0, 0.0, 0.0, 0.0, 0.0, 0.0, 0.0, 0.0, 0.0, 0.0, 1.6776158157674887E9, 0.0, 2023-02-28 12:23:35.767
53.0, 26719.744708507624, -4495.8745832293735, 16524.51056534178, -3417.157044071799, 15107.409966875312, 7267.870875343189, -187500.02235174447, -187500.02235174447, -0.212, -0.788, -0.61, 192.0, 0.0, 0.0, 0.0, 0.0, 0.0, 0.0, 0.0, 0.0, 0.0, 1.677615815771499E9, 0.0, 2023-02-28 12:23:35.771
54.0, 26724.81855449898, -4494.399368095323, 16580.501685202325, -3416.1065120823996, 15135.841385822463, 7263.266415985396, -187500.02235174447, -187500.02235174447, -0.21, -0.792, -0.61, 192.0, 249.0, 112.0, 231.0, 64.0, 236.0, 240.0, 0.0, 0.0, 0.0, 1.6776158157754405E9, 0.0, 2023-02-28 12:23:35.775
55.0, 26672.917803873755, -4494.801699495519, 16311.99017906072, -3413.8489858924136, 14998.06523299995, 7144.310431994251, -187500.02235174447, -187500.02235174447, -0.21, -0.792, -0.61, 192.0, 0.0, 0.0, 0.0, 0.0, 0.0, 0.0, 0.0, 0.0, 0.0, 1.6776158157794578E9, 0.0, 2023-02-28 12:23:35.779
56.0, 26659.685571156213, -4495.561658806999, 16226.561811752537, -3415.681828937749, 14949.941927187674, 7139.124827280621, -187500.02235174447, -187500.02235174447, -0.21, -0.792, -0.61, 192.0, 0.0, 0.0, 0.0, 0.0, 0.0, 0.0, 0.0, 0.0, 0.0, 1.677615815783497E9, 0.0, 2023-02-28 12:23:35.783
57.0, 26704.009080411088, -4495.829879740462, 16485.395012544992, -3418.7216661836705, 15079.246768861625, 7261.277110728874, -187500.02235174447, -187500.02235174447, -0.21, -0.792, -0.61, 192.0, 0.0, 0.0, 0.0, 0.0, 0.0, 0.0, 0.0, 0.0, 0.0, 1.6776158157874908E9, 0.0, 2023-02-28 12:23:35.787
58.0, 26722.71749052018, -4493.147670405826, 16606.139136092563, -3417.738189427637, 15142.278688225591, 7285.662863929613, -187500.02235174447, -187500.02235174447, -0.21, -0.792, -0.61, 192.0, 0.0, 0.0, 0.0, 0.0, 0.0, 0.0, 0.0, 0.0, 0.0, 1.6776158157914684E9, 0.0, 2023-02-28 12:23:35.791
59.0, 26678.438684754216, -4491.9406762052395, 16362.23690059625, -3414.5865934594385, 15021.668675144754, 7165.611644460159, -187500.02235174447, -187500.02235174447, -0.21, -0.792, -0.61, 192.0, 0.0, 0.0, 0.0, 0.0, 0.0, 0.0, 0.0, 0.0, 0.0, 1.6776158157944903E9, 0.0, 2023-02-28 12:23:35.794
60.0, 26662.814815379956, -4491.404234338312, 16211.563791223025, -3414.251317292609, 14947.729104486598, 7124.305620706752, -187500.02235174447, -187500.02235174447, -0.21, -0.792, -0.61, 192.0, 0.0, 0.0, 0.0, 0.0, 0.0, 0.0, 0.0, 0.0, 0.0, 1.6776158157995205E9, 0.0, 2023-02-28 12:23:35.799
61.0, 26711.116935147875, -4491.963027949694, 16435.997657298765, -3417.358209771897, 15062.818236686975, 7236.556081361304, -187500.02235174447, -187500.02235174447, -0.21, -0.792, -0.61, 192.0, 0.0, 0.0, 0.0, 0.0, 0.0, 0.0, 0.0, 0.0, 0.0, 1.677615815803622E9, 0.0, 2023-02-28 12:23:35.803
62.0, 26736.307351149007, -4493.728815761664, 16618.052615887238, -3418.67696269476, 15157.634336666386, 7292.144869821653, -187500.02235174447, -187500.02235174447, -0.21, -0.792, -0.61, 192.0, 0.0, 0.0, 0.0, 0.0, 0.0, 0.0, 0.0, 0.0, 0.0, 1.6776158158075724E9, 0.0, 2023-02-28 12:23:35.807
63.0, 26697.61648149687, -4494.421719839778, 16417.53511637868, -3416.7770644160587, 15058.146722095815, 7186.75639471488, -187500.02235174447, -187500.02235174447, -0.21, -0.792, -0.61, 192.0, 0.0, 0.0, 0.0, 0.0, 0.0, 0.0, 0.0, 0.0, 0.0, 1.677615815811545E9, 0.0, 2023-02-28 12:23:35.811
64.0, 26655.41638796525, -4496.768653007585, 16212.59197146797, -3416.5088434825952, 14952.24415686657, 7122.942164294978, -187500.02235174447, -187500.02235174447, -0.202, -0.786, -0.614, 192.0, 249.0, 176.0, 231.0, 112.0, 236.0, 208.0, 0.0, 0.0, 0.0, 1.6776158158155284E9, 0.0, 2023-02-28 12:23:35.815
65.0, 26694.263719828574, -4496.835708240951, 16386.935578219363, -3420.2639365510868, 15041.651134687798, 7218.227650907952, -187500.02235174447, -187500.02235174447, -0.202, -0.786, -0.614, 192.0, 0.0, 0.0, 0.0, 0.0, 0.0, 0.0, 0.0, 0.0, 0.0, 1.6776158158195477E9, 0.0, 2023-02-28 12:23:35.819
66.0, 26729.601827812414, -4496.321618118479, 16619.594886254657, -3421.605041218405, 15161.076505312503, 7295.117651834208, -187500.02235174447, -187500.02235174447, -0.202, -0.786, -0.614, 192.0, 0.0, 0.0, 0.0, 0.0, 0.0, 0.0, 0.0, 0.0, 0.0, 1.6776158158226216E9, 0.0, 2023-02-28 12:23:35.822
67.0, 26700.09752513141, -4495.539307062543, 16474.040326361697, -3418.9451836282237, 15086.332271853957, 7207.029426935844, -187500.02235174447, -187500.02235174447, -0.202, -0.786, -0.614, 192.0, 0.0, 0.0, 0.0, 0.0, 0.0, 0.0, 0.0, 0.0, 0.0, 1.6776158158275533E9, 0.0, 2023-02-28 12:23:35.827
68.0, 26684.585414479425, -4488.274990114569, 16223.611381484436, -3414.8771661373576, 14959.061438925439, 7118.002428770355, -187500.02235174447, -187500.02235174447, -0.202, -0.786, -0.614, 192.0, 0.0, 0.0, 0.0, 0.0, 0.0, 0.0, 0.0, 0.0, 0.0, 1.677615815831519E9, 0.0, 2023-02-28 12:23:35.831
69.0, 26718.515362562583, -4484.02815866806, 16338.253478795707, -3416.7770644160587, 15018.427672198733, 7192.098461639698, -187500.02235174447, -187500.02235174447, -0.202, -0.786, -0.614, 192.0, 0.0, 0.0, 0.0, 0.0, 0.0, 0.0, 0.0, 0.0, 0.0, 1.6776158158355715E9, 0.0, 2023-02-28 12:23:35.835
70.0, 26747.282057676563, -4486.866830213885, 16606.60852272612, -3418.7663696725813, 15154.102761042448, 7294.514154733915, -187500.02235174447, -187500.02235174447, -0.202, -0.786, -0.614, 192.0, 0.0, 0.0, 0.0, 0.0, 0.0, 0.0, 0.0, 0.0, 0.0, 1.6776158158395836E9, 0.0, 2023-02-28 12:23:35.839
71.0, 26716.459002072694, -4489.057301170505, 16526.343408387114, -3416.3970847603186, 15115.70246406823, 7230.454055125005, -187500.02235174447, -187500.02235174447, -0.202, -0.786, -0.614, 192.0, 0.0, 0.0, 0.0, 0.0, 0.0, 0.0, 0.0, 0.0, 0.0, 1.67761581584356E9, 0.0, 2023-02-28 12:23:35.843
72.0, 26675.488254486118, -4487.805603481007, 16250.478178319716, -3414.2066138036985, 14977.792200778986, 7120.50582414935, -187500.02235174447, -187500.02235174447, -0.202, -0.786, -0.614, 192.0, 0.0, 0.0, 0.0, 0.0, 0.0, 0.0, 0.0, 0.0, 0.0, 1.6776158158476272E9, 0.0, 2023-02-28 12:23:35.847
73.0, 26689.793370937514, -4488.789080237041, 16295.382832930427, -3415.927698126757, 15000.143945234293, 7170.551379984782, -187500.02235174447, -187500.02235174447, -0.202, -0.786, -0.614, 192.0, 0.0, 0.0, 0.0, 0.0, 0.0, 0.0, 0.0, 0.0, 0.0, 1.6776158158505423E9, 0.0, 2023-02-28 12:23:35.850
74.0, 26734.362749381395, -4490.621923282376, 16578.244159012338, -3418.0511138500115, 15145.944374316261, 7290.066157587309, -187500.02235174447, -187500.02235174447, -0.198, -0.776, -0.61, 192.0, 249.0, 208.0, 231.0, 192.0, 236.0, 240.0, 0.0, 0.0, 0.0, 1.6776158158555996E9, 0.0, 2023-02-28 12:23:35.855
75.0, 26731.121746435376, -4490.152536648815, 16568.767019363288, -3414.8101109039917, 15146.033781294082, 7256.7620583489015, -187500.02235174447, -187500.02235174447, -0.198, -0.776, -0.61, 192.0, 0.0, 0.0, 0.0, 0.0, 0.0, 0.0, 0.0, 0.0, 0.0, 1.6776158158595572E9, 0.0, 2023-02-28 12:23:35.859
76.0, 26674.772998663546, -4492.834745983451, 16282.821152546545, -3413.1337300698438, 15001.4403464127, 7134.69918187847, -187500.02235174447, -187500.02235174447, -0.198, -0.776, -0.61, 192.0, 0.0, 0.0, 0.0, 0.0, 0.0, 0.0, 0.0, 0.0, 0.0, 1.6776158158635395E9, 0.0, 2023-02-28 12:23:35.863
77.0, 26678.103408587387, -4494.689940773242, 16257.004887700665, -3416.1288638268547, 14986.375270649824, 7155.486304221905, -187500.02235174447, -187500.02235174447, -0.198, -0.776, -0.61, 192.0, 0.0, 0.0, 0.0, 0.0, 0.0, 0.0, 0.0, 0.0, 0.0, 1.6776158158675435E9, 0.0, 2023-02-28 12:23:35.867
78.0, 26728.48424058965, -4495.695769273731, 16541.743760316822, -3419.7945499175253, 15129.001752019138, 7281.036052827365, -187500.02235174447, -187500.02235174447, -0.198, -0.776, -0.61, 192.0, 0.0, 0.0, 0.0, 0.0, 0.0, 0.0, 0.0, 0.0, 0.0, 1.6776158158716123E9, 0.0, 2023-02-28 12:23:35.871
79.0, 26731.63583655785, -4496.321618118479, 16606.452060514934, -3419.0122388615896, 15162.372906490911, 7277.504477203426, -187500.02235174447, -187500.02235174447, -0.198, -0.776, -0.61, 192.0, 0.0, 0.0, 0.0, 0.0, 0.0, 0.0, 0.0, 0.0, 0.0, 1.6776158158755455E9, 0.0, 2023-02-28 12:23:35.875
80.0, 26684.831283668434, -4494.242905884136, 16327.636400179435, -3415.2124423041873, 15019.768776866053, 7148.400801229573, -187500.02235174447, -187500.02235174447, -0.198, -0.776, -0.61, 192.0, 0.0, 0.0, 0.0, 0.0, 0.0, 0.0, 0.0, 0.0, 0.0, 1.6776158158786001E9, 0.0, 2023-02-28 12:23:35.878
81.0, 26670.235594539117, -4495.606362295909, 16230.026332143108, -3416.620602204872, 14962.615366293832, 7134.006277800355, -187500.02235174447, -187500.02235174447, -0.198, -0.776, -0.61, 192.0, 0.0, 0.0, 0.0, 0.0, 0.0, 0.0, 0.0, 0.0, 0.0, 1.6776158158826084E9, 0.0, 2023-02-28 12:23:35.882
82.0, 26717.151906150808, -4495.8745832293735, 16498.06845165115, -3420.643916206827, 15095.138859169349, 7262.417049696094, -187500.02235174447, -187500.02235174447, -0.198, -0.776, -0.61, 192.0, 0.0, 0.0, 0.0, 0.0, 0.0, 0.0, 0.0, 0.0, 0.0, 1.677615815887672E9, 0.0, 2023-02-28 12:23:35.887
83.0, 26728.23837140064, -4493.862926228396, 16633.855299217143, -3419.7274946841594, 15165.435095481289, 7293.620084955703, -187500.02235174447, -187500.02235174447, -0.198, -0.776, -0.61, 192.0, 0.0, 0.0, 0.0, 0.0, 0.0, 0.0, 0.0, 0.0, 0.0, 1.6776158158915825E9, 0.0, 2023-02-28 12:23:35.891
84.0, 26690.95566164919, -4491.739510505141, 16380.252406627227, -3415.9500498712123, 15038.790111397519, 7168.495019494894, -187500.02235174447, -187500.02235174447, -0.196, -0.778, -0.616, 192.0, 249.0, 224.0, 231.0, 176.0, 236.0, 192.0, 0.0, 0.0, 0.0, 1.677615815895589E9, 0.0, 2023-02-28 12:23:35.895
85.0, 26669.9450218612, -4493.035911683549, 16214.089538346476, -3416.8888231383353, 14954.747552245564, 7123.3444956951735, -187500.02235174447, -187500.02235174447, -0.196, -0.778, -0.616, 192.0, 0.0, 0.0, 0.0, 0.0, 0.0, 0.0, 0.0, 0.0, 0.0, 1.677615815899578E9, 0.0, 2023-02-28 12:23:35.899
86.0, 26714.492048560627, -4492.387711094345, 16446.614735915035, -3420.889785395835, 15070.88721643534, 7239.52886337386, -187500.02235174447, -187500.02235174447, -0.196, -0.778, -0.616, 192.0, 0.0, 0.0, 0.0, 0.0, 0.0, 0.0, 0.0, 0.0, 0.0, 1.677615815904639E9, 0.0, 2023-02-28 12:23:35.904
87.0, 26732.082871446954, -4494.913458217795, 16646.48403483439, -3422.2085383186986, 15173.682889185297, 7299.051558858342, -187500.02235174447, -187500.02235174447, -0.196, -0.778, -0.616, 192.0, 0.0, 0.0, 0.0, 0.0, 0.0, 0.0, 0.0, 0.0, 0.0, 1.6776158159076283E9, 0.0, 2023-02-28 12:23:35.907
88.0, 26684.71952494616, -4497.528612319066, 16436.377636954505, -3419.839253406436, 15067.713268722686, 7186.331711570229, -187500.02235174447, -187500.02235174447, -0.196, -0.778, -0.616, 192.0, 0.0, 0.0, 0.0, 0.0, 0.0, 0.0, 0.0, 0.0, 0.0, 1.6776158159106104E9, 0.0, 2023-02-28 12:23:35.910
89.0, 26658.925611844734, -4499.003827453116, 16211.764956923123, -3419.526328984062, 14952.937060944685, 7111.40866415604, -187500.02235174447, -187500.02235174447, -0.196, -0.778, -0.616, 192.0, 0.0, 0.0, 0.0, 0.0, 0.0, 0.0, 0.0, 0.0, 0.0, 1.6776158159155793E9, 0.0, 2023-02-28 12:23:35.915
90.0, 26701.930368176745, -4501.887202487851, 16390.847133499043, -3423.3261255414636, 15041.807596898985, 7212.460900838483, -187500.02235174447, -187500.02235174447, -0.196, -0.778, -0.616, 192.0, 0.0, 0.0, 0.0, 0.0, 0.0, 0.0, 0.0, 0.0, 0.0, 1.6776158159195805E9, 0.0, 2023-02-28 12:23:35.919
91.0, 26743.839889030445, -4504.010618211105, 16640.940802209476, -3424.778988931059, 15171.246549039668, 7300.169146081108, -187500.02235174447, -187500.02235174447, -0.196, -0.778, -0.616, 192.0, 0.0, 0.0, 0.0, 0.0, 0.0, 0.0, 0.0, 0.0, 0.0, 1.6776158159236104E9, 0.0, 2023-02-28 12:23:35.923
92.0, 26711.183990381243, -4504.703522289219, 16491.608797503566, -3422.5885179744387, 15100.033891205061, 7208.057607180787, -187500.02235174447, -187500.02235174447, -0.196, -0.778, -0.616, 192.0, 0.0, 0.0, 0.0, 0.0, 0.0, 0.0, 0.0, 0.0, 0.0, 1.6776158159267116E9, 0.0, 2023-02-28 12:23:35.926
93.0, 26661.31724850145, -4504.36824612239, 16225.310114063039, -3421.515634240584, 14962.548311060467, 7111.5427746227715, -187500.02235174447, -187500.02235174447, -0.196, -0.778, -0.616, 192.0, 0.0, 0.0, 0.0, 0.0, 0.0, 0.0, 0.0, 0.0, 0.0, 1.6776158159307337E9, 0.0, 2023-02-28 12:23:35.930
94.0, 26682.08201910043, -4504.5023565891215, 16338.856975895998, -3424.4660645086847, 15016.527773920034, 7193.014883162366, -187500.02235174447, -187500.02235174447, -0.194, -0.774, -0.616, 192.0, 249.0, 240.0, 231.0, 208.0, 236.0, 192.0, 0.0, 0.0, 0.0, 1.6776158159346244E9, 0.0, 2023-02-28 12:23:35.934
95.0, 26731.8593540024, -4504.36824612239, 16624.132290379082, -3426.1424453428326, 15160.115380300926, 7306.651151973147, -187500.02235174447, -187500.02235174447, -0.194, -0.774, -0.616, 192.0, 0.0, 0.0, 0.0, 0.0, 0.0, 0.0, 0.0, 0.0, 0.0, 1.6776158159386375E9, 0.0, 2023-02-28 12:23:35.938
96.0, 26706.490124045627, -4505.84346125644, 16544.56008011819, -3423.7284569416593, 15119.681074581275, 7240.937023274544, -187500.02235174447, -187500.02235174447, -0.194, -0.774, -0.616, 192.0, 0.0, 0.0, 0.0, 0.0, 0.0, 0.0, 0.0, 0.0, 0.0, 1.677615815943714E9, 0.0, 2023-02-28 12:23:35.943
97.0, 26651.124853029833, -4508.659781057809, 16248.60063178547, -3423.0132011190894, 14970.77375302002, 7117.5330421367935, -187500.02235174447, -187500.02235174447, -0.194, -0.774, -0.616, 192.0, 0.0, 0.0, 0.0, 0.0, 0.0, 0.0, 0.0, 0.0, 0.0, 1.6776158159477391E9, 0.0, 2023-02-28 12:23:35.947
98.0, 26666.70401891518, -4508.168042679792, 16288.498495638192, -3425.6283552203604, 14994.086622486904, 7164.9410921265, -187500.02235174447, -187500.02235174447, -0.194, -0.774, -0.616, 192.0, 0.0, 0.0, 0.0, 0.0, 0.0, 0.0, 0.0, 0.0, 0.0, 1.6776158159516504E9, 0.0, 2023-02-28 12:23:35.951
99.0, 26723.477449831662, -4506.536365334555, 16589.19651379544, -3427.0141633765893, 15145.474987682699, 7293.597733211248, -187500.02235174447, -187500.02235174447, -0.194, -0.774, -0.616, 192.0, 0.0, 0.0, 0.0, 0.0, 0.0, 0.0, 0.0, 0.0, 0.0, 1.6776158159546654E9, 0.0, 2023-02-28 12:23:35.954
100.0, 26722.00223469761, -4503.854155999918, 16586.983691094363, -3423.6614017082934, 15145.944374316261, 7261.05359328432, -187500.02235174447, -187500.02235174447, -0.194, -0.774, -0.616, 192.0, 0.0, 0.0, 0.0, 0.0, 0.0, 0.0, 0.0, 0.0, 0.0, 1.677615815958676E9, 0.0, 2023-02-28 12:23:35.958
101.0, 26674.370667263353, -4502.490699588144, 16284.430478147326, -3420.778026673559, 14995.830058554418, 7129.513577164838, -187500.02235174447, -187500.02235174447, -0.194, -0.774, -0.616, 192.0, 0.0, 0.0, 0.0, 0.0, 0.0, 0.0, 0.0, 0.0, 0.0, 1.677615815962692E9, 0.0, 2023-02-28 12:23:35.962
102.0, 26670.928498617235, -4504.3235426334795, 16247.795968985078, -3422.5885179744387, 14979.222712424125, 7146.5232546953275, -187500.02235174447, -187500.02235174447, -0.194, -0.774, -0.616, 192.0, 0.0, 0.0, 0.0, 0.0, 0.0, 0.0, 0.0, 0.0, 0.0, 1.6776158159667065E9, 0.0, 2023-02-28 12:23:35.966
103.0, 26711.832190970446, -4509.0844642024595, 16545.27533594076, -3426.7235906986703, 15131.348685186946, 7276.968035336499, -187500.02235174447, -187500.02235174447, -0.194, -0.774, -0.616, 192.0, 0.0, 0.0, 0.0, 0.0, 0.0, 0.0, 0.0, 0.0, 0.0, 1.6776158159717207E9, 0.0, 2023-02-28 12:23:35.971
104.0, 26714.603807282903, -4512.906612504317, 16620.95834266643, -3426.611831976394, 15169.748982161163, 7277.258608014418, -187500.02235174447, -187500.02235174447, -0.184, -0.768, -0.616, 192.0, 250.0, 64.0, 232.0, 0.0, 236.0, 192.0, 0.0, 0.0, 0.0, 1.6776158159756663E9, 0.0, 2023-02-28 12:23:35.975
105.0, 26666.256984026073, -4514.091254960448, 16330.542126958624, -3424.0413813640334, 15023.83679435692, 7142.209368015453, -187500.02235174447, -187500.02235174447, -0.184, -0.768, -0.616, 192.0, 0.0, 0.0, 0.0, 0.0, 0.0, 0.0, 0.0, 0.0, 0.0, 1.6776158159797544E9, 0.0, 2023-02-28 12:23:35.979
106.0, 26664.37943749183, -4513.800682282529, 16220.035102371587, -3425.2260238201648, 14969.499703586067, 7123.143329995076, -187500.02235174447, -187500.02235174447, -0.184, -0.768, -0.616, 192.0, 0.0, 0.0, 0.0, 0.0, 0.0, 0.0, 0.0, 0.0, 0.0, 1.677615815983708E9, 0.0, 2023-02-28 12:23:35.983
107.0, 26699.851655942402, -4520.103874218926, 16496.861457450566, -3430.8810151673574, 15105.13008894087, 7252.090543757742, -187500.02235174447, -187500.02235174447, -0.184, -0.768, -0.616, 192.0, 0.0, 0.0, 0.0, 0.0, 0.0, 0.0, 0.0, 0.0, 0.0, 1.6776158159877124E9, 0.0, 2023-02-28 12:23:35.987
108.0, 26696.565949507472, -4529.670420845798, 16645.92524122301, -3433.7867419465474, 15178.063831098538, 7280.901942360633, -187500.02235174447, -187500.02235174447, -0.184, -0.768, -0.616, 192.0, 0.0, 0.0, 0.0, 0.0, 0.0, 0.0, 0.0, 0.0, 0.0, 1.6776158159927247E9, 0.0, 2023-02-28 12:23:35.992
109.0, 26654.544669931493, -4529.692772590252, 16387.136743919462, -3430.836311678447, 15048.155492324293, 7153.385240243107, -187500.02235174447, -187500.02235174447, -0.184, -0.768, -0.616, 192.0, 0.0, 0.0, 0.0, 0.0, 0.0, 0.0, 0.0, 0.0, 0.0, 1.6776158159957325E9, 0.0, 2023-02-28 12:23:35.995
110.0, 26637.9373238012, -4527.994040011649, 16209.440375499771, -3430.411628533796, 14956.401581335258, 7101.886821018079, -187500.02235174447, -187500.02235174447, -0.184, -0.768, -0.616, 192.0, 0.0, 0.0, 0.0, 0.0, 0.0, 0.0, 0.0, 0.0, 0.0, 1.6776158159997013E9, 0.0, 2023-02-28 12:23:35.999
111.0, 26678.773960921048, -4527.479949889177, 16443.64195390248, -3433.4291140352625, 15073.971757170173, 7218.6076305636925, -187500.02235174447, -187500.02235174447, -0.184, -0.768, -0.616, 192.0, 0.0, 0.0, 0.0, 0.0, 0.0, 0.0, 0.0, 0.0, 0.0, 1.677615816003694E9, 0.0, 2023-02-28 12:23:36.003
112.0, 26697.080039629942, -4528.75399932313, 16654.932994238497, -3434.3008320690196, 15182.28831080059, 7284.947608107043, -187500.02235174447, -187500.02235174447, -0.184, -0.768, -0.616, 192.0, 0.0, 0.0, 0.0, 0.0, 0.0, 0.0, 0.0, 0.0, 0.0, 1.6776158160077062E9, 0.0, 2023-02-28 12:23:36.007
113.0, 26661.004324079076, -4527.614060355909, 16445.20657601435, -3430.411628533796, 15077.4586293052, 7173.747679441891, -187500.02235174447, -187500.02235174447, -0.184, -0.768, -0.616, 192.0, 0.0, 0.0, 0.0, 0.0, 0.0, 0.0, 0.0, 0.0, 0.0, 1.677615816010787E9, 0.0, 2023-02-28 12:23:36.010
114.0, 26620.927646270713, -4530.5644906240095, 16210.759128422635, -3430.8139599339916, 14956.356877846347, 7094.019006969811, -187500.02235174447, -187500.02235174447, -0.19, -0.77, -0.608, 192.0, 250.0, 16.0, 231.0, 240.0, 237.0, 0.0, 0.0, 0.0, 0.0, 1.6776158160147464E9, 0.0, 2023-02-28 12:23:36.014
115.0, 26650.074321040433, -4535.1465982373475, 16388.254331142227, -3436.0219163920783, 15044.802730655996, 7193.908952940578, -187500.02235174447, -187500.02235174447, -0.19, -0.77, -0.608, 192.0, 0.0, 0.0, 0.0, 0.0, 0.0, 0.0, 0.0, 0.0, 0.0, 1.6776158160187736E9, 0.0, 2023-02-28 12:23:36.018
116.0, 26685.27831855754, -4535.817150571007, 16649.367409869126, -3436.9383379147457, 15179.315528788034, 7288.479183730982, -187500.02235174447, -187500.02235174447, -0.19, -0.77, -0.608, 192.0, 0.0, 0.0, 0.0, 0.0, 0.0, 0.0, 0.0, 0.0, 0.0, 1.6776158160227208E9, 0.0, 2023-02-28 12:23:36.022
117.0, 26656.04223681, -4535.973612782194, 16502.20352437538, -3433.2055965907093, 15106.068862207994, 7199.407482076584, -187500.02235174447, -187500.02235174447, -0.19, -0.77, -0.608, 192.0, 0.0, 0.0, 0.0, 0.0, 0.0, 0.0, 0.0, 0.0, 0.0, 1.677615816026755E9, 0.0, 2023-02-28 12:23:36.026
118.0, 26604.476762351605, -4539.818112828507, 16222.918477406321, -3432.6244512348717, 14966.862197740342, 7095.673036059504, -187500.02235174447, -187500.02235174447, -0.19, -0.77, -0.608, 192.0, 0.0, 0.0, 0.0, 0.0, 0.0, 0.0, 0.0, 0.0, 0.0, 1.677615816031772E9, 0.0, 2023-02-28 12:23:36.031
119.0, 26630.89652429778, -4540.287499462068, 16329.715112413778, -3435.485474525151, 15020.662846644265, 7170.350214284685, -187500.02235174447, -187500.02235174447, -0.19, -0.77, -0.608, 192.0, 0.0, 0.0, 0.0, 0.0, 0.0, 0.0, 0.0, 0.0, 0.0, 1.6776158160357213E9, 0.0, 2023-02-28 12:23:36.035
120.0, 26676.09175158641, -4538.5440633945545, 16624.75813922383, -3436.379544303363, 15169.23489203869, 7285.126422062686, -187500.02235174447, -187500.02235174447, -0.19, -0.77, -0.608, 192.0, 0.0, 0.0, 0.0, 0.0, 0.0, 0.0, 0.0, 0.0, 0.0, 1.677615816038744E9, 0.0, 2023-02-28 12:23:36.038
121.0, 26661.98780083511, -4534.051362759038, 16551.5561761327, -3432.15506460131, 15134.589688132965, 7220.4851770979385, -187500.02235174447, -187500.02235174447, -0.19, -0.77, -0.608, 192.0, 0.0, 0.0, 0.0, 0.0, 0.0, 0.0, 0.0, 0.0, 0.0, 1.6776158160427835E9, 0.0, 2023-02-28 12:23:36.042
122.0, 26616.189076446186, -4531.458560402222, 16247.348934095971, -3429.1152273553885, 14981.234369425103, 7096.701216304447, -187500.02235174447, -187500.02235174447, -0.19, -0.77, -0.608, 192.0, 0.0, 0.0, 0.0, 0.0, 0.0, 0.0, 0.0, 0.0, 0.0, 1.6776158160468802E9, 0.0, 2023-02-28 12:23:36.046
123.0, 26629.354253930363, -4530.609194112921, 16279.155466455873, -3430.5010355116174, 14995.87476204333, 7141.22589125942, -187500.02235174447, -187500.02235174447, -0.19, -0.77, -0.608, 192.0, 0.0, 0.0, 0.0, 0.0, 0.0, 0.0, 0.0, 0.0, 0.0, 1.6776158160507584E9, 0.0, 2023-02-28 12:23:36.050
124.0, 26687.200568580698, -4530.18451096827, 16589.040051584252, -3433.451465779718, 15151.755827874642, 7269.659014899614, -187500.02235174447, -187500.02235174447, -0.19, -0.77, -0.608, 192.0, 0.0, 0.0, 0.0, 0.0, 0.0, 0.0, 0.0, 0.0, 0.0, 1.677615816055778E9, 0.0, 2023-02-28 12:23:36.055
125.0, 26686.150036591298, -4530.94447027975, 16598.09250808865, -3431.708029712204, 15155.935604087783, 7240.534691874349, -187500.02235174447, -187500.02235174447, -0.19, -0.774, -0.616, 192.0, 250.0, 16.0, 231.0, 208.0, 236.0, 192.0, 0.0, 0.0, 0.0, 1.6776158160597513E9, 0.0, 2023-02-28 12:23:36.059
126.0, 26633.98106503261, -4532.218519713702, 16291.65009160639, -3429.5175587555837, 14999.272227200536, 7106.424225142507, -187500.02235174447, -187500.02235174447, -0.19, -0.774, -0.616, 192.0, 0.0, 0.0, 0.0, 0.0, 0.0, 0.0, 0.0, 0.0, 0.0, 1.6776158160638552E9, 0.0, 2023-02-28 12:23:36.063
127.0, 26623.632207349805, -4535.973612782194, 16247.237175373695, -3431.8197884344804, 14974.797067021975, 7118.203594470453, -187500.02235174447, -187500.02235174447, -0.19, -0.774, -0.616, 192.0, 0.0, 0.0, 0.0, 0.0, 0.0, 0.0, 0.0, 0.0, 0.0, 1.677615816066835E9, 0.0, 2023-02-28 12:23:36.066
128.0, 26672.962507362667, -4539.169912239303, 16550.170367976472, -3435.44077103624, 15128.554717130033, 7252.761096091402, -187500.02235174447, -187500.02235174447, -0.19, -0.774, -0.616, 192.0, 0.0, 0.0, 0.0, 0.0, 0.0, 0.0, 0.0, 0.0, 0.0, 1.677615816070793E9, 0.0, 2023-02-28 12:23:36.070
129.0, 26687.80406568099, -4538.097028505448, 16634.704665506444, -3433.809093691003, 15176.34274677548, 7254.951567048021, -187500.02235174447, -187500.02235174447, -0.19, -0.774, -0.616, 192.0, 0.0, 0.0, 0.0, 0.0, 0.0, 0.0, 0.0, 0.0, 0.0, 1.6776158160747707E9, 0.0, 2023-02-28 12:23:36.074
130.0, 26633.75754758806, -4538.477008161189, 16341.89681314192, -3430.29986981152, 15028.463605459167, 7119.0306090153, -187500.02235174447, -187500.02235174447, -0.19, -0.774, -0.616, 192.0, 0.0, 0.0, 0.0, 0.0, 0.0, 0.0, 0.0, 0.0, 0.0, 1.677615816078824E9, 0.0, 2023-02-28 12:23:36.078
131.0, 26610.332919398898, -4539.952223295239, 16222.292628561572, -3431.864491923391, 14967.91272972974, 7097.304713404741, -187500.02235174447, -187500.02235174447, -0.19, -0.774, -0.616, 192.0, 0.0, 0.0, 0.0, 0.0, 0.0, 0.0, 0.0, 0.0, 0.0, 1.6776158160837696E9, 0.0, 2023-02-28 12:23:36.083
132.0, 26651.08014954092, -4542.4779704186885, 16498.962521429363, -3436.6254134923715, 15108.728719798175, 7229.559985346793, -187500.02235174447, -187500.02235174447, -0.19, -0.774, -0.616, 192.0, 0.0, 0.0, 0.0, 0.0, 0.0, 0.0, 0.0, 0.0, 0.0, 1.6776158160878851E9, 0.0, 2023-02-28 12:23:36.087
133.0, 26670.32500151694, -4545.584862897976, 16658.01753497333, -3437.2736140815755, 15192.123078360926, 7265.076907286276, -187500.02235174447, -187500.02235174447, -0.19, -0.774, -0.616, 192.0, 0.0, 0.0, 0.0, 0.0, 0.0, 0.0, 0.0, 0.0, 0.0, 1.6776158160928197E9, 0.0, 2023-02-28 12:23:36.092
134.0, 26624.526277128018, -4546.61304314292, 16400.123107447995, -3434.4349425357514, 15062.862940175884, 7134.74388536738, -187500.02235174447, -187500.02235174447, -0.19, -0.774, -0.616, 192.0, 0.0, 0.0, 0.0, 0.0, 0.0, 0.0, 0.0, 0.0, 0.0, 1.677615816096812E9, 0.0, 2023-02-28 12:23:36.096
135.0, 26594.820808746914, -4545.383697197878, 16212.30139879005, -3434.6584599803045, 14965.811665750942, 7082.776079508792, -187500.02235174447, -187500.02235174447, -0.194, -0.776, -0.618, 192.0, 249.0, 240.0, 231.0, 192.0, 236.0, 176.0, 0.0, 0.0, 0.0, 1.67761581609986E9, 0.0, 2023-02-28 12:23:36.099
136.0, 26638.853745323868, -4544.936662308773, 16444.49132019178, -3436.9606896592013, 15082.55482704101, 7202.268505366863, -187500.02235174447, -187500.02235174447, -0.194, -0.776, -0.618, 192.0, 0.0, 0.0, 0.0, 0.0, 0.0, 0.0, 0.0, 0.0, 0.0, 1.6776158161038215E9, 0.0, 2023-02-28 12:23:36.103
137.0, 26667.75455090458, -4547.887092576872, 16666.086514721694, -3438.6370704933493, 15194.894694673383, 7267.982634065465, -187500.02235174447, -187500.02235174447, -0.194, -0.776, -0.618, 192.0, 0.0, 0.0, 0.0, 0.0, 0.0, 0.0, 0.0, 0.0, 0.0, 1.6776158161068163E9, 0.0, 2023-02-28 12:23:36.106
138.0, 26626.917913784735, -4550.56930191151, 16461.389238999993, -3436.87128268138, 15091.741394012142, 7152.960557098456, -187500.02235174447, -187500.02235174447, -0.194, -0.776, -0.618, 192.0, 0.0, 0.0, 0.0, 0.0, 0.0, 0.0, 0.0, 0.0, 0.0, 1.6776158161108272E9, 0.0, 2023-02-28 12:23:36.110
139.0, 26593.971442457612, -4553.09504903496, 16219.342198293472, -3437.675945481771, 14964.96229946164, 7070.639082269559, -187500.02235174447, -187500.02235174447, -0.194, -0.776, -0.618, 192.0, 0.0, 0.0, 0.0, 0.0, 0.0, 0.0, 0.0, 0.0, 0.0, 1.6776158161158128E9, 0.0, 2023-02-28 12:23:36.115
140.0, 26630.65065510877, -4554.704374635741, 16391.85296199953, -3441.4980937836285, 15049.74246618062, 7168.159743328064, -187500.02235174447, -187500.02235174447, -0.194, -0.776, -0.618, 192.0, 0.0, 0.0, 0.0, 0.0, 0.0, 0.0, 0.0, 0.0, 0.0, 1.6776158161189463E9, 0.0, 2023-02-28 12:23:36.118
141.0, 26650.633114651813, -4558.347708981956, 16662.018497230827, -3442.8839019398574, 15188.189171336791, 7263.177009007574, -187500.02235174447, -187500.02235174447, -0.194, -0.776, -0.618, 192.0, 0.0, 0.0, 0.0, 0.0, 0.0, 0.0, 0.0, 0.0, 0.0, 1.6776158161228116E9, 0.0, 2023-02-28 12:23:36.122
142.0, 26625.12977422831, -4556.783086870085, 16522.901239740997, -3438.5923670044385, 15118.965818758705, 7175.982853887422, -187500.02235174447, -187500.02235174447, -0.194, -0.776, -0.618, 192.0, 0.0, 0.0, 0.0, 0.0, 0.0, 0.0, 0.0, 0.0, 0.0, 1.677615816126867E9, 0.0, 2023-02-28 12:23:36.126
143.0, 26590.439866833673, -4551.910406578828, 16237.111835135442, -3435.3737158028744, 14974.618253066332, 7074.908265460524, -187500.02235174447, -187500.02235174447, -0.194, -0.776, -0.618, 192.0, 0.0, 0.0, 0.0, 0.0, 0.0, 0.0, 0.0, 0.0, 0.0, 1.6776158161318684E9, 0.0, 2023-02-28 12:23:36.131
