%OpenBCI Raw EEG Data
%Number of channels = 8
%Sample Rate = 250 Hz
%Board = OpenBCI_GUI$BoardCytonSerial
Sample Index, EXG Channel 0, EXG Channel 1, EXG Channel 2, EXG Channel 3, EXG Channel 4, EXG Channel 5, EXG Channel 6, EXG Channel 7, Accel Channel 0, Accel Channel 1, Accel Channel 2, Other, Other, Other, Other, Other, Other, Other, Analog Channel 0, Analog Channel 1, Analog Channel 2, Timestamp, Other, Timestamp (Formatted)
24.0, 26766.95159279723, -4388.139174954793, 16009.302855646953, -3383.1823924997325, 15196.280502829613, 7035.2339190523535, -187500.02235174447, -187500.02235174447, 0.0, 0.0, 0.0, 192.0, 0.0, 0.0, 0.0, 0.0, 0.0, 0.0, 0.0, 0.0, 0.0, 1.6776157239160492E9, 0.0, 2023-02-28 12:22:03.916
25.0, 26813.309110797538, -4390.5084598670555, 16291.60538811748, -3385.8198983454586, 15337.811748720616, 7148.221987273931, -187500.02235174447, -187500.02235174447, 0.0, 0.0, 0.0, 192.0, 0.0, 0.0, 0.0, 0.0, 0.0, 0.0, 0.0, 0.0, 0.0, 1.6776157239160845E9, 0.0, 2023-02-28 12:22:03.916
26.0, 26801.954424614243, -4393.280076179513, 16257.764847012146, -3384.5234971670507, 15321.383216545966, 7102.646780329559, -187500.02235174447, -187500.02235174447, 0.0, 0.0, 0.0, 192.0, 0.0, 0.0, 0.0, 0.0, 0.0, 0.0, 0.0, 0.0, 0.0, 1.6776157239161015E9, 0.0, 2023-02-28 12:22:03.916
0.0, 0.0, 0.0, 0.0, 0.0, 0.0, 0.0, 0.0, 0.0, -0.178, -0.772, -0.618, 192.0, 250.0, 112.0, 231.0, 224.0, 236.0, 176.0, 0.0, 0.0, 0.0, 1.6776157239897888E9, 0.0, 2023-02-28 12:22:03.989
1.0, 27183.789275144252, -4470.594760250421, 16290.621911361446, -3429.8751866668686, 15259.535939638132, 7076.361128850118, -187500.02235174447, -187500.02235174447, -0.178, -0.772, -0.618, 192.0, 0.0, 0.0, 0.0, 0.0, 0.0, 0.0, 0.0, 0.0, 0.0, 1.677615724006782E9, 0.0, 2023-02-28 12:22:04.006
2.0, 27120.489134846823, -4475.690957986231, 16007.715881790626, -3428.5117302550952, 15112.930847755773, 6959.081525693122, -187500.02235174447, -187500.02235174447, -0.178, -0.772, -0.618, 192.0, 0.0, 0.0, 0.0, 0.0, 0.0, 0.0, 0.0, 0.0, 0.0, 1.6776157240097682E9, 0.0, 2023-02-28 12:22:04.009
3.0, 27119.438602857426, -4482.619998767376, 16008.967579480122, -3432.937375657246, 15105.554772085521, 6986.618874862061, -187500.02235174447, -187500.02235174447, -0.178, -0.772, -0.618, 192.0, 0.0, 0.0, 0.0, 0.0, 0.0, 0.0, 0.0, 0.0, 0.0, 1.677615724013772E9, 0.0, 2023-02-28 12:22:04.013
4.0, 27167.696019136434, -4487.023292425071, 16301.037824277619, -3437.474779781673, 15259.178311726846, 7094.913076748023, -187500.02235174447, -187500.02235174447, -0.178, -0.772, -0.618, 192.0, 0.0, 0.0, 0.0, 0.0, 0.0, 0.0, 0.0, 0.0, 0.0, 1.6776157240168896E9, 0.0, 2023-02-28 12:22:04.016
5.0, 27168.38892321455, -4482.687054000742, 16335.571269461068, -3434.0996663689216, 15278.289053236134, 7089.146326678554, -187500.02235174447, -187500.02235174447, -0.178, -0.772, -0.618, 192.0, 0.0, 0.0, 0.0, 0.0, 0.0, 0.0, 0.0, 0.0, 0.0, 1.6776157240207703E9, 0.0, 2023-02-28 12:22:04.020
6.0, 27128.066376217175, -4476.249751597614, 16049.580699155415, -3428.5564337440055, 15145.385580704879, 6971.240874676809, -187500.02235174447, -187500.02235174447, -0.178, -0.772, -0.618, 192.0, 0.0, 0.0, 0.0, 0.0, 0.0, 0.0, 0.0, 0.0, 0.0, 1.677615724024892E9, 0.0, 2023-02-28 12:22:04.024
7.0, 27121.51731509177, -4478.976664421161, 15978.122172131798, -3430.903366911813, 15106.001806974627, 6970.816191532158, -187500.02235174447, -187500.02235174447, -0.178, -0.772, -0.618, 192.0, 0.0, 0.0, 0.0, 0.0, 0.0, 0.0, 0.0, 0.0, 0.0, 1.6776157240287776E9, 0.0, 2023-02-28 12:22:04.028
8.0, 27168.6124406591, -4483.111737145393, 16257.049591189576, -3435.0831431249553, 15243.01800048566, 7093.281399402786, -187500.02235174447, -187500.02235174447, -0.17400000000000002, -0.768, -0.62, 192.0, 250.0, 144.0, 232.0, 0.0, 236.0, 160.0, 0.0, 0.0, 0.0, 1.6776157240328677E9, 0.0, 2023-02-28 12:22:04.032
9.0, 27186.00209784533, -4483.6034755234095, 16365.567310520091, -3434.8819774248577, 15302.853620392516, 7103.764367552325, -187500.02235174447, -187500.02235174447, -0.17400000000000002, -0.768, -0.62, 192.0, 0.0, 0.0, 0.0, 0.0, 0.0, 0.0, 0.0, 0.0, 0.0, 1.677615724036785E9, 0.0, 2023-02-28 12:22:04.036
10.0, 27143.980818269352, -4485.592780779932, 16101.637911991826, -3432.356230301408, 15170.307775772546, 6986.350653928596, -187500.02235174447, -187500.02235174447, -0.17400000000000002, -0.768, -0.62, 192.0, 0.0, 0.0, 0.0, 0.0, 0.0, 0.0, 0.0, 0.0, 0.0, 1.6776157240398877E9, 0.0, 2023-02-28 12:22:04.039
11.0, 27117.337538878626, -4487.760899992097, 15961.805398679424, -3432.557396001506, 15094.781231258063, 6959.640319304504, -187500.02235174447, -187500.02235174447, -0.17400000000000002, -0.768, -0.62, 192.0, 0.0, 0.0, 0.0, 0.0, 0.0, 0.0, 0.0, 0.0, 0.0, 1.6776157240447695E9, 0.0, 2023-02-28 12:22:04.044
12.0, 27147.04300725973, -4491.98537969415, 16205.484116731182, -3436.9159861702906, 15212.060834415059, 7080.227980640886, -187500.02235174447, -187500.02235174447, -0.17400000000000002, -0.768, -0.62, 192.0, 0.0, 0.0, 0.0, 0.0, 0.0, 0.0, 0.0, 0.0, 0.0, 1.6776157240488732E9, 0.0, 2023-02-28 12:22:04.048
13.0, 27199.837827663163, -4483.804641223507, 16376.43025832537, -3434.8149221914914, 15300.394928502434, 7126.987830041388, -187500.02235174447, -187500.02235174447, -0.17400000000000002, -0.768, -0.62, 192.0, 0.0, 0.0, 0.0, 0.0, 0.0, 0.0, 0.0, 0.0, 0.0, 1.6776157240528665E9, 0.0, 2023-02-28 12:22:04.052
14.0, 27161.16930975548, -4479.64721675482, 16148.777741048068, -3429.338744799941, 15194.000624895172, 7008.925915828457, -187500.02235174447, -187500.02235174447, -0.17400000000000002, -0.768, -0.62, 192.0, 0.0, 0.0, 0.0, 0.0, 0.0, 0.0, 0.0, 0.0, 0.0, 1.6776157240568905E9, 0.0, 2023-02-28 12:22:04.056
15.0, 27125.317111649172, -4483.625827267865, 15952.73059043057, -3429.5622622444944, 15089.148591655327, 6949.447923832885, -187500.02235174447, -187500.02235174447, -0.17400000000000002, -0.768, -0.62, 192.0, 0.0, 0.0, 0.0, 0.0, 0.0, 0.0, 0.0, 0.0, 0.0, 1.6776157240619304E9, 0.0, 2023-02-28 12:22:04.061
16.0, 27156.56485039769, -4484.452841812711, 16146.788435791546, -3433.607927990905, 15182.265959056134, 7052.534169260761, -187500.02235174447, -187500.02235174447, -0.17400000000000002, -0.768, -0.62, 192.0, 0.0, 0.0, 0.0, 0.0, 0.0, 0.0, 0.0, 0.0, 0.0, 1.677615724064893E9, 0.0, 2023-02-28 12:22:04.064
17.0, 27193.892263638052, -4484.609304023898, 16370.283528600161, -3433.7643902020923, 15299.053823835115, 7127.636030630592, -187500.02235174447, -187500.02235174447, -0.17400000000000002, -0.768, -0.62, 192.0, 0.0, 0.0, 0.0, 0.0, 0.0, 0.0, 0.0, 0.0, 0.0, 1.6776157240679088E9, 0.0, 2023-02-28 12:22:04.067
18.0, 27160.14112951054, -4483.290551101035, 16196.275198015595, -3429.226986077665, 15213.53604954911, 7035.457436496907, -187500.02235174447, -187500.02235174447, -0.166, -0.776, -0.62, 192.0, 250.0, 208.0, 231.0, 192.0, 236.0, 160.0, 0.0, 0.0, 0.0, 1.677615724072867E9, 0.0, 2023-02-28 12:22:04.072
19.0, 27118.298663890204, -4489.034949426049, 15956.195110821141, -3429.741076200137, 15090.042661433537, 6947.793894743192, -187500.02235174447, -187500.02235174447, -0.166, -0.776, -0.62, 192.0, 0.0, 0.0, 0.0, 0.0, 0.0, 0.0, 0.0, 0.0, 0.0, 1.677615724076832E9, 0.0, 2023-02-28 12:22:04.076
20.0, 27143.354969424603, -4491.337179104946, 16089.99265313061, -3433.317355312986, 15157.52257794411, 7022.739293901836, -187500.02235174447, -187500.02235174447, -0.166, -0.776, -0.62, 192.0, 0.0, 0.0, 0.0, 0.0, 0.0, 0.0, 0.0, 0.0, 0.0, 1.67761572408085E9, 0.0, 2023-02-28 12:22:04.080
21.0, 27176.346144240637, -4490.890144215839, 16353.676182469868, -3435.0384396360446, 15289.420221974877, 7116.996600269867, -187500.02235174447, -187500.02235174447, -0.166, -0.776, -0.62, 192.0, 0.0, 0.0, 0.0, 0.0, 0.0, 0.0, 0.0, 0.0, 0.0, 1.67761572408486E9, 0.0, 2023-02-28 12:22:04.084
22.0, 27160.543460910736, -4477.300283587013, 16246.8348439735, -3427.8188261769806, 15241.945116751805, 7059.999651908834, -187500.02235174447, -187500.02235174447, -0.166, -0.776, -0.62, 192.0, 0.0, 0.0, 0.0, 0.0, 0.0, 0.0, 0.0, 0.0, 0.0, 1.677615724087864E9, 0.0, 2023-02-28 12:22:04.087
23.0, 27122.12081219206, -4474.640425996831, 15976.155218619731, -3426.34361104293, 15118.027045491583, 6944.083505163611, -187500.02235174447, -187500.02235174447, -0.166, -0.776, -0.62, 192.0, 0.0, 0.0, 0.0, 0.0, 0.0, 0.0, 0.0, 0.0, 0.0, 1.6776157240919068E9, 0.0, 2023-02-28 12:22:04.091
24.0, 27133.676664075454, -4476.853248697907, 16040.684704862202, -3429.5175587555837, 15144.513862671121, 7008.5235844282615, -187500.02235174447, -187500.02235174447, -0.166, -0.776, -0.62, 192.0, 0.0, 0.0, 0.0, 0.0, 0.0, 0.0, 0.0, 0.0, 0.0, 1.6776157240959792E9, 0.0, 2023-02-28 12:22:04.095
25.0, 27181.598804187634, -4477.657911498298, 16326.652923423402, -3431.909195412302, 15287.945006840828, 7124.350324195662, -187500.02235174447, -187500.02235174447, -0.166, -0.776, -0.62, 192.0, 0.0, 0.0, 0.0, 0.0, 0.0, 0.0, 0.0, 0.0, 0.0, 1.6776157241009228E9, 0.0, 2023-02-28 12:22:04.100
26.0, 27163.829167345666, -4482.1953156227255, 16298.579132387536, -3431.7527332011146, 15273.394021200422, 7072.963663692912, -187500.02235174447, -187500.02235174447, -0.166, -0.776, -0.62, 192.0, 0.0, 0.0, 0.0, 0.0, 0.0, 0.0, 0.0, 0.0, 0.0, 1.6776157241049366E9, 0.0, 2023-02-28 12:22:04.104
27.0, 27136.045948987718, -4473.79105970753, 16010.442794614173, -3426.3659627873853, 15127.61594386291, 6971.464392121362, -187500.02235174447, -187500.02235174447, -0.166, -0.776, -0.62, 192.0, 0.0, 0.0, 0.0, 0.0, 0.0, 0.0, 0.0, 0.0, 0.0, 1.677615724108918E9, 0.0, 2023-02-28 12:22:04.108
28.0, 27147.400635171016, -4476.719138231175, 15998.194038652664, -3429.2716895665753, 15119.457557136722, 6997.2583052227865, -187500.02235174447, -187500.02235174447, -0.17400000000000002, -0.774, -0.626, 192.0, 250.0, 144.0, 231.0, 208.0, 236.0, 112.0, 0.0, 0.0, 0.0, 1.67761572411291E9, 0.0, 2023-02-28 12:22:04.112
29.0, 27185.935042611964, -4480.228362110658, 16287.22444620424, -3433.9432041577347, 15265.615614129974, 7116.102530491654, -187500.02235174447, -187500.02235174447, -0.17400000000000002, -0.774, -0.626, 192.0, 0.0, 0.0, 0.0, 0.0, 0.0, 0.0, 0.0, 0.0, 0.0, 1.6776157241158953E9, 0.0, 2023-02-28 12:22:04.115
30.0, 27181.53174895427, -4480.340120832935, 16334.028999093653, -3433.093837868433, 15288.056765563104, 7102.892649518568, -187500.02235174447, -187500.02235174447, -0.17400000000000002, -0.774, -0.626, 192.0, 0.0, 0.0, 0.0, 0.0, 0.0, 0.0, 0.0, 0.0, 0.0, 1.6776157241199026E9, 0.0, 2023-02-28 12:22:04.119
31.0, 27137.31999842167, -4482.12826038936, 16053.000516057076, -3430.7469047006257, 15143.888013826372, 6977.700528824393, -187500.02235174447, -187500.02235174447, -0.17400000000000002, -0.774, -0.626, 192.0, 0.0, 0.0, 0.0, 0.0, 0.0, 0.0, 0.0, 0.0, 0.0, 1.6776157241238768E9, 0.0, 2023-02-28 12:22:04.123
32.0, 27138.303475177705, -4481.345949333424, 15967.102762115332, -3431.3727535453745, 15102.64904530633, 6972.537275855217, -187500.02235174447, -187500.02235174447, -0.17400000000000002, -0.774, -0.626, 192.0, 0.0, 0.0, 0.0, 0.0, 0.0, 0.0, 0.0, 0.0, 0.0, 1.677615724127925E9, 0.0, 2023-02-28 12:22:04.127
33.0, 27178.581318686167, -4482.93292318975, 16239.682285747802, -3434.993736147134, 15240.738122551218, 7096.008312226333, -187500.02235174447, -187500.02235174447, -0.17400000000000002, -0.774, -0.626, 192.0, 0.0, 0.0, 0.0, 0.0, 0.0, 0.0, 0.0, 0.0, 0.0, 1.6776157241329038E9, 0.0, 2023-02-28 12:22:04.132
34.0, 27198.56377822921, -4477.926132431761, 16356.29133657114, -3433.026782635067, 15303.546524470632, 7119.008257270844, -187500.02235174447, -187500.02235174447, -0.17400000000000002, -0.774, -0.626, 192.0, 0.0, 0.0, 0.0, 0.0, 0.0, 0.0, 0.0, 0.0, 0.0, 1.6776157241368728E9, 0.0, 2023-02-28 12:22:04.136
35.0, 27146.864193304085, -4476.920303931272, 16097.23461833413, -3429.450503522218, 15175.538083975087, 6995.358406944086, -187500.02235174447, -187500.02235174447, -0.17400000000000002, -0.774, -0.626, 192.0, 0.0, 0.0, 0.0, 0.0, 0.0, 0.0, 0.0, 0.0, 0.0, 1.6776157241409051E9, 0.0, 2023-02-28 12:22:04.140
36.0, 27115.482344088836, -4476.830896953452, 15949.020200850988, -3429.450503522218, 15098.737490026653, 6960.847313505092, -187500.02235174447, -187500.02235174447, -0.17400000000000002, -0.774, -0.626, 192.0, 0.0, 0.0, 0.0, 0.0, 0.0, 0.0, 0.0, 0.0, 0.0, 1.6776157241438706E9, 0.0, 2023-02-28 12:22:04.143
37.0, 27157.660085876, -4477.859077198395, 16186.708651388724, -3432.311526812497, 15217.447604828789, 7077.456364328428, -187500.02235174447, -187500.02235174447, -0.17400000000000002, -0.774, -0.626, 192.0, 0.0, 0.0, 0.0, 0.0, 0.0, 0.0, 0.0, 0.0, 0.0, 1.6776157241479475E9, 0.0, 2023-02-28 12:22:04.147
38.0, 27186.136208312062, -4479.0884231434375, 16368.964775677297, -3432.7362099571483, 15310.3638065295, 7125.490263162883, -187500.02235174447, -187500.02235174447, -0.178, -0.778, -0.626, 192.0, 250.0, 112.0, 231.0, 176.0, 236.0, 112.0, 0.0, 0.0, 0.0, 1.677615724151895E9, 0.0, 2023-02-28 12:22:04.151
39.0, 27149.144071238527, -4475.579199263954, 16149.761217804102, -3427.930584899257, 15202.449584299278, 7013.463319952884, -187500.02235174447, -187500.02235174447, -0.178, -0.778, -0.626, 192.0, 0.0, 0.0, 0.0, 0.0, 0.0, 0.0, 0.0, 0.0, 0.0, 1.677615724155992E9, 0.0, 2023-02-28 12:22:04.155
40.0, 27117.963387723375, -4476.585027764443, 15945.9133083717, -3427.125922098866, 15095.541190569544, 6954.298252379686, -187500.02235174447, -187500.02235174447, -0.178, -0.778, -0.626, 192.0, 0.0, 0.0, 0.0, 0.0, 0.0, 0.0, 0.0, 0.0, 0.0, 1.6776157241609232E9, 0.0, 2023-02-28 12:22:04.160
41.0, 27152.18390848445, -4480.273065599569, 16133.355037373905, -3432.289175068042, 15188.591502736987, 7052.757686705314, -187500.02235174447, -187500.02235174447, -0.178, -0.778, -0.626, 192.0, 0.0, 0.0, 0.0, 0.0, 0.0, 0.0, 0.0, 0.0, 0.0, 1.6776157241650083E9, 0.0, 2023-02-28 12:22:04.165
42.0, 27188.32667926868, -4482.284722600547, 16366.684897742856, -3434.189073346743, 15309.447385006832, 7129.401818442562, -187500.02235174447, -187500.02235174447, -0.178, -0.778, -0.626, 192.0, 0.0, 0.0, 0.0, 0.0, 0.0, 0.0, 0.0, 0.0, 0.0, 1.6776157241689131E9, 0.0, 2023-02-28 12:22:04.168
43.0, 27159.358818454602, -4483.402309823312, 16203.181887052286, -3431.484512267651, 15229.4951950902, 7035.34567777463, -187500.02235174447, -187500.02235174447, -0.178, -0.778, -0.626, 192.0, 0.0, 0.0, 0.0, 0.0, 0.0, 0.0, 0.0, 0.0, 0.0, 1.6776157241719975E9, 0.0, 2023-02-28 12:22:04.171
44.0, 27124.6018558266, -4485.235152868647, 15957.49151199955, -3430.67984946726, 15103.297245895536, 6947.346859854086, -187500.02235174447, -187500.02235174447, -0.178, -0.778, -0.626, 192.0, 0.0, 0.0, 0.0, 0.0, 0.0, 0.0, 0.0, 0.0, 0.0, 1.6776157241759534E9, 0.0, 2023-02-28 12:22:04.175
45.0, 27154.553193396714, -4485.212801124192, 16081.141362326309, -3433.9432041577347, 15163.66930766932, 7026.896718370524, -187500.02235174447, -187500.02235174447, -0.178, -0.778, -0.626, 192.0, 0.0, 0.0, 0.0, 0.0, 0.0, 0.0, 0.0, 0.0, 0.0, 1.6776157241799986E9, 0.0, 2023-02-28 12:22:04.179
46.0, 27187.410257746014, -4486.039815669038, 16351.709228957801, -3436.737172214648, 15299.657320935408, 7128.731266108903, -187500.02235174447, -187500.02235174447, -0.178, -0.778, -0.626, 192.0, 0.0, 0.0, 0.0, 0.0, 0.0, 0.0, 0.0, 0.0, 0.0, 1.677615724184984E9, 0.0, 2023-02-28 12:22:04.184
47.0, 27158.80002484322, -4484.117565645882, 16256.401390600371, -3433.2726518240756, 15252.718657579264, 7058.055050141222, -187500.02235174447, -187500.02235174447, -0.178, -0.778, -0.626, 192.0, 0.0, 0.0, 0.0, 0.0, 0.0, 0.0, 0.0, 0.0, 0.0, 1.6776157241890445E9, 0.0, 2023-02-28 12:22:04.189
48.0, 27141.119794979073, -4475.310978330491, 15979.30681458793, -3428.712895955193, 15115.680112323775, 6957.718069281348, -187500.02235174447, -187500.02235174447, -0.17200000000000001, -0.778, -0.62, 192.0, 250.0, 160.0, 231.0, 176.0, 236.0, 160.0, 0.0, 0.0, 0.0, 1.6776157241930635E9, 0.0, 2023-02-28 12:22:04.193
49.0, 27149.300533449714, -4478.596684765421, 16032.07928324691, -3432.3785820458634, 15142.479853925688, 7006.109596027089, -187500.02235174447, -187500.02235174447, -0.17200000000000001, -0.778, -0.62, 192.0, 0.0, 0.0, 0.0, 0.0, 0.0, 0.0, 0.0, 0.0, 0.0, 1.677615724197002E9, 0.0, 2023-02-28 12:22:04.197
50.0, 27189.354859513627, -4479.893085943829, 16322.204926276796, -3435.6195849918827, 15287.654434162909, 7124.55148989576, -187500.02235174447, -187500.02235174447, -0.17200000000000001, -0.778, -0.62, 192.0, 0.0, 0.0, 0.0, 0.0, 0.0, 0.0, 0.0, 0.0, 0.0, 1.6776157242000196E9, 0.0, 2023-02-28 12:22:04.200
51.0, 27178.514263452802, -4476.003882408605, 16303.56357140107, -3432.244471579131, 15278.847846847517, 7089.459251100929, -187500.02235174447, -187500.02235174447, -0.17200000000000001, -0.778, -0.62, 192.0, 0.0, 0.0, 0.0, 0.0, 0.0, 0.0, 0.0, 0.0, 0.0, 1.6776157242039533E9, 0.0, 2023-02-28 12:22:04.203
52.0, 27137.208239699394, -4474.238094596636, 16017.88592551779, -3429.294041311031, 15132.019237520604, 6971.576150843639, -187500.02235174447, -187500.02235174447, -0.17200000000000001, -0.778, -0.62, 192.0, 0.0, 0.0, 0.0, 0.0, 0.0, 0.0, 0.0, 0.0, 0.0, 1.6776157242080271E9, 0.0, 2023-02-28 12:22:04.208
53.0, 27144.539611880737, -4471.622940495365, 15995.131849662288, -3430.054000622511, 15123.547926372043, 6993.279694709742, -187500.02235174447, -187500.02235174447, -0.17200000000000001, -0.778, -0.62, 192.0, 0.0, 0.0, 0.0, 0.0, 0.0, 0.0, 0.0, 0.0, 0.0, 1.6776157242120295E9, 0.0, 2023-02-28 12:22:04.212
54.0, 27185.130379811573, -4473.2769695850575, 16282.999966502186, -3432.892672168335, 15269.147189753914, 7118.874146804113, -187500.02235174447, -187500.02235174447, -0.17200000000000001, -0.778, -0.62, 192.0, 0.0, 0.0, 0.0, 0.0, 0.0, 0.0, 0.0, 0.0, 0.0, 1.6776157242169912E9, 0.0, 2023-02-28 12:22:04.216
55.0, 27194.607519460624, -4471.913513173284, 16338.94638287382, -3430.8810151673574, 15301.512515725199, 7112.459196145439, -187500.02235174447, -187500.02235174447, -0.17200000000000001, -0.778, -0.62, 192.0, 0.0, 0.0, 0.0, 0.0, 0.0, 0.0, 0.0, 0.0, 0.0, 1.6776157242209833E9, 0.0, 2023-02-28 12:22:04.220
56.0, 27148.786443327244, -4470.795925950519, 16060.46599870515, -3427.125922098866, 15163.266976269124, 6986.95415102889, -187500.02235174447, -187500.02235174447, -0.17200000000000001, -0.778, -0.62, 192.0, 0.0, 0.0, 0.0, 0.0, 0.0, 0.0, 0.0, 0.0, 0.0, 1.6776157242250085E9, 0.0, 2023-02-28 12:22:04.225
57.0, 27138.906972277997, -4470.214780594681, 15966.834541181868, -3428.1093988548996, 15113.690807067253, 6977.342900913108, -187500.02235174447, -187500.02235174447, -0.17200000000000001, -0.778, -0.62, 192.0, 0.0, 0.0, 0.0, 0.0, 0.0, 0.0, 0.0, 0.0, 0.0, 1.6776157242279992E9, 0.0, 2023-02-28 12:22:04.227
58.0, 27197.692060195455, -4471.064146883982, 16234.384922311894, -3431.484512267651, 15249.388247655423, 7103.40673964104, -187500.02235174447, -187500.02235174447, -0.17200000000000001, -0.772, -0.628, 192.0, 250.0, 160.0, 231.0, 224.0, 236.0, 96.0, 0.0, 0.0, 0.0, 1.6776157242320504E9, 0.0, 2023-02-28 12:22:04.232
59.0, 27216.6239877491, -4472.4052515513, 16362.974508163275, -3432.4903407681395, 15314.588286231554, 7127.814844586235, -187500.02235174447, -187500.02235174447, -0.17200000000000001, -0.772, -0.628, 192.0, 0.0, 0.0, 0.0, 0.0, 0.0, 0.0, 0.0, 0.0, 0.0, 1.6776157242360463E9, 0.0, 2023-02-28 12:22:04.236
60.0, 27167.47250169188, -4471.0417951395275, 16108.589304517425, -3428.802302933014, 15185.730479446707, 7009.507061184295, -187500.02235174447, -187500.02235174447, -0.17200000000000001, -0.772, -0.628, 192.0, 0.0, 0.0, 0.0, 0.0, 0.0, 0.0, 0.0, 0.0, 0.0, 1.6776157242410383E9, 0.0, 2023-02-28 12:22:04.241
61.0, 27142.930286279952, -4472.114678873382, 15950.562471218405, -3428.4670267661845, 15103.967798229194, 6968.178685686432, -187500.02235174447, -187500.02235174447, -0.17200000000000001, -0.772, -0.628, 192.0, 0.0, 0.0, 0.0, 0.0, 0.0, 0.0, 0.0, 0.0, 0.0, 1.677615724244972E9, 0.0, 2023-02-28 12:22:04.244
62.0, 27169.640620904043, -4478.17200162077, 16181.992433308655, -3433.2055965907093, 15217.894639717895, 7077.54577130625, -187500.02235174447, -187500.02235174447, -0.17200000000000001, -0.772, -0.628, 192.0, 0.0, 0.0, 0.0, 0.0, 0.0, 0.0, 0.0, 0.0, 0.0, 1.6776157242490735E9, 0.0, 2023-02-28 12:22:04.249
63.0, 27186.76205715681, -4482.396481322823, 16370.864673955999, -3434.189073346743, 15313.582457731065, 7129.401818442562, -187500.02235174447, -187500.02235174447, -0.17200000000000001, -0.772, -0.628, 192.0, 0.0, 0.0, 0.0, 0.0, 0.0, 0.0, 0.0, 0.0, 0.0, 1.6776157242530065E9, 0.0, 2023-02-28 12:22:04.253
64.0, 27147.46769040438, -4483.26819935658, 16155.952651018222, -3429.383448288852, 15206.763470979151, 7020.593526434127, -187500.02235174447, -187500.02235174447, -0.17200000000000001, -0.772, -0.628, 192.0, 0.0, 0.0, 0.0, 0.0, 0.0, 0.0, 0.0, 0.0, 0.0, 1.6776157242561088E9, 0.0, 2023-02-28 12:22:04.256
65.0, 27117.315187134172, -4485.861001713396, 15944.371038004285, -3429.361096544397, 15097.619902803888, 6951.191359900398, -187500.02235174447, -187500.02235174447, -0.17200000000000001, -0.772, -0.628, 192.0, 0.0, 0.0, 0.0, 0.0, 0.0, 0.0, 0.0, 0.0, 0.0, 1.6776157242600749E9, 0.0, 2023-02-28 12:22:04.260
66.0, 27156.810719586698, -4485.4810220576555, 16122.872069224368, -3433.2055965907093, 15185.842238168985, 7051.5506925047275, -187500.02235174447, -187500.02235174447, -0.17200000000000001, -0.772, -0.628, 192.0, 0.0, 0.0, 0.0, 0.0, 0.0, 0.0, 0.0, 0.0, 0.0, 1.677615724264008E9, 0.0, 2023-02-28 12:22:04.264
67.0, 27184.102199566627, -4486.5092023026, 16361.8122174516, -3434.6808117247597, 15307.16750707239, 7133.60394640016, -187500.02235174447, -187500.02235174447, -0.17200000000000001, -0.772, -0.628, 192.0, 0.0, 0.0, 0.0, 0.0, 0.0, 0.0, 0.0, 0.0, 0.0, 1.6776157242681105E9, 0.0, 2023-02-28 12:22:04.268
68.0, 27156.56485039769, -4483.804641223507, 16207.920456876811, -3431.350401800919, 15232.467977102755, 7039.77132317678, -187500.02235174447, -187500.02235174447, -0.17, -0.776, -0.63, 192.0, 250.0, 176.0, 231.0, 192.0, 236.0, 80.0, 0.0, 0.0, 0.0, 1.6776157242730684E9, 0.0, 2023-02-28 12:22:04.273
69.0, 27127.66404481698, -4480.071899899471, 15957.044477110443, -3427.4388465212405, 15105.152440685326, 6951.012545944756, -187500.02235174447, -187500.02235174447, -0.17, -0.776, -0.63, 192.0, 0.0, 0.0, 0.0, 0.0, 0.0, 0.0, 0.0, 0.0, 0.0, 1.6776157242770393E9, 0.0, 2023-02-28 12:22:04.277
70.0, 27154.19556548543, -4477.9708359206725, 16069.853731376379, -3429.9198901557793, 15161.098857056959, 7026.852014881613, -187500.02235174447, -187500.02235174447, -0.17, -0.776, -0.63, 192.0, 0.0, 0.0, 0.0, 0.0, 0.0, 0.0, 0.0, 0.0, 0.0, 1.6776157242810488E9, 0.0, 2023-02-28 12:22:04.281
71.0, 27199.122571840595, -4475.243923097125, 16341.762702675189, -3431.5068640121062, 15300.104355824515, 7132.911042322045, -187500.02235174447, -187500.02235174447, -0.17, -0.776, -0.63, 192.0, 0.0, 0.0, 0.0, 0.0, 0.0, 0.0, 0.0, 0.0, 0.0, 1.6776157242840996E9, 0.0, 2023-02-28 12:22:04.284
72.0, 27180.615327431602, -4472.226437595658, 16256.826073745022, -3428.2435093216313, 15262.173445483859, 7066.325195589686, -187500.02235174447, -187500.02235174447, -0.17, -0.776, -0.63, 192.0, 0.0, 0.0, 0.0, 0.0, 0.0, 0.0, 0.0, 0.0, 0.0, 1.6776157242880452E9, 0.0, 2023-02-28 12:22:04.288
73.0, 27142.88558279104, -4471.287664328535, 15980.223236110598, -3425.8965761538243, 15126.051321751038, 6956.779296014225, -187500.02235174447, -187500.02235174447, -0.17, -0.776, -0.63, 192.0, 0.0, 0.0, 0.0, 0.0, 0.0, 0.0, 0.0, 0.0, 0.0, 1.677615724292098E9, 0.0, 2023-02-28 12:22:04.292
74.0, 27158.978838798863, -4472.941693418228, 16020.188155196687, -3428.4670267661845, 15147.978383061694, 7002.041578536222, -187500.02235174447, -187500.02235174447, -0.17, -0.776, -0.63, 192.0, 0.0, 0.0, 0.0, 0.0, 0.0, 0.0, 0.0, 0.0, 0.0, 1.677615724296059E9, 0.0, 2023-02-28 12:22:04.296
75.0, 27201.04482186375, -4477.5014492871105, 16310.04557729311, -3431.4398087787404, 15292.415355731888, 7119.611754371137, -187500.02235174447, -187500.02235174447, -0.17, -0.776, -0.63, 192.0, 0.0, 0.0, 0.0, 0.0, 0.0, 0.0, 0.0, 0.0, 0.0, 1.677615724301072E9, 0.0, 2023-02-28 12:22:04.301
76.0, 27188.304327524227, -4480.518934788577, 16303.205943489784, -3430.8139599339916, 15284.592245172531, 7083.871314987102, -187500.02235174447, -187500.02235174447, -0.17, -0.776, -0.63, 192.0, 0.0, 0.0, 0.0, 0.0, 0.0, 0.0, 0.0, 0.0, 0.0, 1.677615724305151E9, 0.0, 2023-02-28 12:22:04.305
77.0, 27152.876812562565, -4475.467440541678, 16017.796518539968, -3427.4388465212405, 15137.4730631677, 6968.245740919798, -187500.02235174447, -187500.02235174447, -0.17, -0.776, -0.63, 192.0, 0.0, 0.0, 0.0, 0.0, 0.0, 0.0, 0.0, 0.0, 0.0, 1.6776157243081064E9, 0.0, 2023-02-28 12:22:04.308
78.0, 27157.436568431447, -4474.685129485742, 15985.475896057595, -3429.316393055486, 15126.56541187351, 6983.154354471488, -187500.02235174447, -187500.02235174447, -0.17200000000000001, -0.772, -0.622, 192.0, 250.0, 160.0, 231.0, 224.0, 236.0, 144.0, 0.0, 0.0, 0.0, 1.67761572431207E9, 0.0, 2023-02-28 12:22:04.312
79.0, 27207.392717289058, -4474.3275015744575, 16272.204073930274, -3432.937375657246, 15271.337660710535, 7106.468928631417, -187500.02235174447, -187500.02235174447, -0.17200000000000001, -0.772, -0.622, 192.0, 0.0, 0.0, 0.0, 0.0, 0.0, 0.0, 0.0, 0.0, 0.0, 1.677615724316039E9, 0.0, 2023-02-28 12:22:04.316
80.0, 27201.938891641963, -4469.879504427851, 16339.996914863219, -3429.96459364469, 15305.446422749332, 7109.955800766445, -187500.02235174447, -187500.02235174447, -0.17200000000000001, -0.772, -0.622, 192.0, 0.0, 0.0, 0.0, 0.0, 0.0, 0.0, 0.0, 0.0, 0.0, 1.677615724320181E9, 0.0, 2023-02-28 12:22:04.320
81.0, 27156.318981208682, -4467.107888115393, 16063.170559784241, -3427.1035703544107, 15168.452580982756, 6986.797688817703, -187500.02235174447, -187500.02235174447, -0.17200000000000001, -0.772, -0.622, 192.0, 0.0, 0.0, 0.0, 0.0, 0.0, 0.0, 0.0, 0.0, 0.0, 1.6776157243241253E9, 0.0, 2023-02-28 12:22:04.324
82.0, 27136.31416992118, -4469.879504427851, 15961.850102168335, -3429.7857796890476, 15114.651932078832, 6966.412897874463, -187500.02235174447, -187500.02235174447, -0.17200000000000001, -0.772, -0.622, 192.0, 0.0, 0.0, 0.0, 0.0, 0.0, 0.0, 0.0, 0.0, 0.0, 1.677615724329105E9, 0.0, 2023-02-28 12:22:04.329
83.0, 27167.785426114253, -4473.679300985254, 16228.618172242424, -3433.898500668824, 15242.30274466309, 7091.694425546459, -187500.02235174447, -187500.02235174447, -0.17200000000000001, -0.772, -0.622, 192.0, 0.0, 0.0, 0.0, 0.0, 0.0, 0.0, 0.0, 0.0, 0.0, 1.6776157243331091E9, 0.0, 2023-02-28 12:22:04.333
84.0, 27218.613293005623, -4465.990300892628, 16363.265080841195, -3430.7916081895364, 15316.488184510254, 7125.423207929517, -187500.02235174447, -187500.02235174447, -0.17200000000000001, -0.772, -0.622, 192.0, 0.0, 0.0, 0.0, 0.0, 0.0, 0.0, 0.0, 0.0, 0.0, 1.6776157243361397E9, 0.0, 2023-02-28 12:22:04.336
85.0, 27176.502606451824, -4465.185638092236, 16112.545563286016, -3426.7235906986703, 15197.353386563467, 7002.086282025133, -187500.02235174447, -187500.02235174447, -0.17200000000000001, -0.772, -0.622, 192.0, 0.0, 0.0, 0.0, 0.0, 0.0, 0.0, 0.0, 0.0, 0.0, 1.6776157243400764E9, 0.0, 2023-02-28 12:22:04.340
86.0, 27143.489079891337, -4469.253655583102, 15948.416703750696, -3428.3999715328187, 15111.32152215499, 6955.214673902354, -187500.02235174447, -187500.02235174447, -0.17200000000000001, -0.772, -0.622, 192.0, 0.0, 0.0, 0.0, 0.0, 0.0, 0.0, 0.0, 0.0, 0.0, 1.6776157243441207E9, 0.0, 2023-02-28 12:22:04.344
87.0, 27173.95450758392, -4472.539362018033, 16172.850569826434, -3432.1103611123995, 15223.571982809543, 7069.58855028016, -187500.02235174447, -187500.02235174447, -0.17200000000000001, -0.772, -0.622, 192.0, 0.0, 0.0, 0.0, 0.0, 0.0, 0.0, 0.0, 0.0, 0.0, 1.6776157243481238E9, 0.0, 2023-02-28 12:22:04.348
88.0, 27196.820342161696, -4474.5063155300995, 16369.188293121852, -3432.8256169349693, 15326.099434626036, 7128.463045175439, -187500.02235174447, -187500.02235174447, -0.17200000000000001, -0.78, -0.618, 192.0, 250.0, 160.0, 231.0, 160.0, 236.0, 176.0, 0.0, 0.0, 0.0, 1.6776157243521657E9, 0.0, 2023-02-28 12:22:04.352
89.0, 27157.794196342733, -4476.294455086524, 16165.139217989352, -3430.0763523669666, 15223.907258976373, 7022.336962501641, -187500.02235174447, -187500.02235174447, -0.17200000000000001, -0.78, -0.618, 192.0, 0.0, 0.0, 0.0, 0.0, 0.0, 0.0, 0.0, 0.0, 0.0, 1.6776157243562078E9, 0.0, 2023-02-28 12:22:04.356
90.0, 27143.578486869155, -4476.875600442362, 15948.103779328321, -3429.5175587555837, 15111.477984366178, 6951.973670956335, -187500.02235174447, -187500.02235174447, -0.17200000000000001, -0.78, -0.618, 192.0, 0.0, 0.0, 0.0, 0.0, 0.0, 0.0, 0.0, 0.0, 0.0, 1.67761572436117E9, 0.0, 2023-02-28 12:22:04.361
91.0, 27181.040010576253, -4478.686091743242, 16117.105319154898, -3434.524349513573, 15192.011319638648, 7045.91805290199, -187500.02235174447, -187500.02235174447, -0.17200000000000001, -0.78, -0.618, 192.0, 0.0, 0.0, 0.0, 0.0, 0.0, 0.0, 0.0, 0.0, 0.0, 1.6776157243641984E9, 0.0, 2023-02-28 12:22:04.364
92.0, 27201.022470119296, -4479.26723709908, 16362.61688025199, -3437.474779781673, 15312.889553652949, 7133.291021977785, -187500.02235174447, -187500.02235174447, -0.17200000000000001, -0.78, -0.618, 192.0, 0.0, 0.0, 0.0, 0.0, 0.0, 0.0, 0.0, 0.0, 0.0, 1.6776157243681316E9, 0.0, 2023-02-28 12:22:04.368
93.0, 27162.510414422803, -4477.635559753842, 16219.521012249115, -3434.122018113377, 15241.788654540618, 7048.577910492171, -187500.02235174447, -187500.02235174447, -0.17200000000000001, -0.78, -0.618, 192.0, 0.0, 0.0, 0.0, 0.0, 0.0, 0.0, 0.0, 0.0, 0.0, 1.6776157243722105E9, 0.0, 2023-02-28 12:22:04.372
94.0, 27124.825373271153, -4477.143821375826, 15963.839407424857, -3433.2055965907093, 15110.025120976583, 6953.068906434644, -187500.02235174447, -187500.02235174447, -0.17200000000000001, -0.78, -0.618, 192.0, 0.0, 0.0, 0.0, 0.0, 0.0, 0.0, 0.0, 0.0, 0.0, 1.677615724376157E9, 0.0, 2023-02-28 12:22:04.376
95.0, 27148.04883576022, -4479.826030710463, 16067.283280764019, -3436.223082092176, 15161.94822334626, 7023.499253213317, -187500.02235174447, -187500.02235174447, -0.17200000000000001, -0.78, -0.618, 192.0, 0.0, 0.0, 0.0, 0.0, 0.0, 0.0, 0.0, 0.0, 0.0, 1.677615724380202E9, 0.0, 2023-02-28 12:22:04.380
96.0, 27191.52297872579, -4479.893085943829, 16342.097978842019, -3436.9606896592013, 15300.730204669262, 7129.021838786822, -187500.02235174447, -187500.02235174447, -0.17200000000000001, -0.78, -0.618, 192.0, 0.0, 0.0, 0.0, 0.0, 0.0, 0.0, 0.0, 0.0, 0.0, 1.677615724384149E9, 0.0, 2023-02-28 12:22:04.384
97.0, 27178.42485647498, -4478.395519065323, 16268.918367495344, -3432.937375657246, 15265.34739319651, 7067.889817701557, -187500.02235174447, -187500.02235174447, -0.17200000000000001, -0.78, -0.618, 192.0, 0.0, 0.0, 0.0, 0.0, 0.0, 0.0, 0.0, 0.0, 0.0, 1.6776157243892941E9, 0.0, 2023-02-28 12:22:04.389
98.0, 27132.112041963584, -4481.4577080557, 15990.147410648753, -3431.0374773785447, 15123.123243227392, 6960.0426507047005, -187500.02235174447, -187500.02235174447, -0.17, -0.78, -0.626, 192.0, 250.0, 176.0, 231.0, 160.0, 236.0, 112.0, 0.0, 0.0, 0.0, 1.6776157243921673E9, 0.0, 2023-02-28 12:22:04.392
99.0, 27140.762167067787, -4486.620961024876, 16020.568134852427, -3434.859625680402, 15137.338952700968, 7002.95800005889, -187500.02235174447, -187500.02235174447, -0.17, -0.78, -0.626, 192.0, 0.0, 0.0, 0.0, 0.0, 0.0, 0.0, 0.0, 0.0, 0.0, 1.6776157243962138E9, 0.0, 2023-02-28 12:22:04.396
100.0, 27190.494798480846, -4487.425623825267, 16309.75500461519, -3437.2289105926648, 15290.716623153285, 7117.60009737016, -187500.02235174447, -187500.02235174447, -0.17, -0.78, -0.626, 192.0, 0.0, 0.0, 0.0, 0.0, 0.0, 0.0, 0.0, 0.0, 0.0, 1.6776157244002137E9, 0.0, 2023-02-28 12:22:04.400
101.0, 27176.167330284996, -4487.98441743665, 16312.571324416558, -3435.194901847232, 15294.337605755045, 7085.279474887786, -187500.02235174447, -187500.02235174447, -0.17, -0.78, -0.626, 192.0, 0.0, 0.0, 0.0, 0.0, 0.0, 0.0, 0.0, 0.0, 0.0, 1.6776157244041831E9, 0.0, 2023-02-28 12:22:04.404
102.0, 27128.781632039743, -4484.609304023898, 16026.446643644173, -3431.931547156757, 15147.084313283482, 6968.290444408709, -187500.02235174447, -187500.02235174447, -0.17, -0.78, -0.626, 192.0, 0.0, 0.0, 0.0, 0.0, 0.0, 0.0, 0.0, 0.0, 0.0, 1.6776157244082391E9, 0.0, 2023-02-28 12:22:04.408
103.0, 27132.782594297245, -4482.619998767376, 15984.581826279382, -3434.0326111355557, 15122.430339149278, 6982.059118993177, -187500.02235174447, -187500.02235174447, -0.17, -0.78, -0.626, 192.0, 0.0, 0.0, 0.0, 0.0, 0.0, 0.0, 0.0, 0.0, 0.0, 1.6776157244122305E9, 0.0, 2023-02-28 12:22:04.412
104.0, 27184.37042050009, -4481.033024911049, 16267.778428528123, -3436.9383379147457, 15265.034468774138, 7107.251239687353, -187500.02235174447, -187500.02235174447, -0.17, -0.78, -0.626, 192.0, 0.0, 0.0, 0.0, 0.0, 0.0, 0.0, 0.0, 0.0, 0.0, 1.6776157244171941E9, 0.0, 2023-02-28 12:22:04.417
105.0, 27194.115781082604, -4477.903780687307, 16345.003705621208, -3434.2337768356538, 15306.228733805268, 7111.565126367227, -187500.02235174447, -187500.02235174447, -0.17, -0.78, -0.626, 192.0, 0.0, 0.0, 0.0, 0.0, 0.0, 0.0, 0.0, 0.0, 0.0, 1.6776157244201796E9, 0.0, 2023-02-28 12:22:04.420
106.0, 27147.959428782397, -4475.892123686329, 16071.865388377357, -3430.0763523669666, 15167.983194349194, 6988.898752796502, -187500.02235174447, -187500.02235174447, -0.17, -0.78, -0.626, 192.0, 0.0, 0.0, 0.0, 0.0, 0.0, 0.0, 0.0, 0.0, 0.0, 1.6776157244243135E9, 0.0, 2023-02-28 12:22:04.424
107.0, 27135.7553763098, -4476.249751597614, 15960.620756223292, -3430.29986981152, 15111.32152215499, 6967.99987173079, -187500.02235174447, -187500.02235174447, -0.17, -0.78, -0.626, 192.0, 0.0, 0.0, 0.0, 0.0, 0.0, 0.0, 0.0, 0.0, 0.0, 1.6776157244282804E9, 0.0, 2023-02-28 12:22:04.428
108.0, 27184.05749607772, -4477.07676614246, 16220.236268071685, -3434.0102593911006, 15243.06270397457, 7087.916980733512, -187500.02235174447, -187500.02235174447, -0.17200000000000001, -0.782, -0.626, 192.0, 250.0, 160.0, 231.0, 144.0, 236.0, 112.0, 0.0, 0.0, 0.0, 1.6776157244322395E9, 0.0, 2023-02-28 12:22:04.432
109.0, 27195.792161916754, -4479.110774887893, 16368.316575088094, -3434.0996663689216, 15320.019760134193, 7121.444597416473, -187500.02235174447, -187500.02235174447, -0.17200000000000001, -0.782, -0.626, 192.0, 0.0, 0.0, 0.0, 0.0, 0.0, 0.0, 0.0, 0.0, 0.0, 1.6776157244361703E9, 0.0, 2023-02-28 12:22:04.436
110.0, 27144.27139094727, -4481.748280733619, 16127.320066370972, -3431.417457034285, 15198.426270297323, 7003.114462270077, -187500.02235174447, -187500.02235174447, -0.17200000000000001, -0.782, -0.626, 192.0, 0.0, 0.0, 0.0, 0.0, 0.0, 0.0, 0.0, 0.0, 0.0, 1.6776157244403603E9, 0.0, 2023-02-28 12:22:04.440
111.0, 27116.085841189128, -4484.519897046077, 15954.272860797986, -3432.1103611123995, 15106.89587675284, 6955.482894835818, -187500.02235174447, -187500.02235174447, -0.17200000000000001, -0.782, -0.626, 192.0, 0.0, 0.0, 0.0, 0.0, 0.0, 0.0, 0.0, 0.0, 0.0, 1.6776157244452848E9, 0.0, 2023-02-28 12:22:04.445
112.0, 27152.072149762174, -4488.811431981496, 16170.123657002887, -3436.379544303363, 15215.234782127713, 7064.067669399699, -187500.02235174447, -187500.02235174447, -0.17200000000000001, -0.782, -0.626, 192.0, 0.0, 0.0, 0.0, 0.0, 0.0, 0.0, 0.0, 0.0, 0.0, 1.6776157244483478E9, 0.0, 2023-02-28 12:22:04.448
113.0, 27173.261603505805, -4492.588876794443, 16373.390421079448, -3437.407724548307, 15321.539678757154, 7124.17151024002, -187500.02235174447, -187500.02235174447, -0.17200000000000001, -0.782, -0.626, 192.0, 0.0, 0.0, 0.0, 0.0, 0.0, 0.0, 0.0, 0.0, 0.0, 1.677615724452376E9, 0.0, 2023-02-28 12:22:04.452
114.0, 27135.42010014297, -4490.934847704751, 16178.05852628452, -3432.669154723782, 15222.856726986973, 7024.2592125247975, -187500.02235174447, -187500.02235174447, -0.17200000000000001, -0.782, -0.626, 192.0, 0.0, 0.0, 0.0, 0.0, 0.0, 0.0, 0.0, 0.0, 0.0, 1.6776157244564233E9, 0.0, 2023-02-28 12:22:04.456
115.0, 27113.470687087858, -4489.683150015253, 15954.071695097888, -3431.216291334187, 15113.400234389333, 6948.017412187745, -187500.02235174447, -187500.02235174447, -0.17200000000000001, -0.782, -0.626, 192.0, 0.0, 0.0, 0.0, 0.0, 0.0, 0.0, 0.0, 0.0, 0.0, 1.67761572446048E9, 0.0, 2023-02-28 12:22:04.460
116.0, 27138.66110308899, -4492.946504705728, 16112.947894686211, -3435.1725501027763, 15191.497229516177, 7042.4535325114175, -187500.02235174447, -187500.02235174447, -0.17200000000000001, -0.782, -0.626, 192.0, 0.0, 0.0, 0.0, 0.0, 0.0, 0.0, 0.0, 0.0, 0.0, 1.6776157244643426E9, 0.0, 2023-02-28 12:22:04.464
117.0, 27144.159632224993, -4499.115586175392, 16362.281604085161, -3437.2959658260306, 15314.185954831357, 7131.100551021165, -187500.02235174447, -187500.02235174447, -0.17200000000000001, -0.782, -0.626, 192.0, 0.0, 0.0, 0.0, 0.0, 0.0, 0.0, 0.0, 0.0, 0.0, 1.6776157244683113E9, 0.0, 2023-02-28 12:22:04.468
118.0, 27106.429887584436, -4500.054359442515, 16229.109910620442, -3433.7643902020923, 15249.388247655423, 7047.572081991682, -187500.02235174447, -187500.02235174447, -0.17200000000000001, -0.782, -0.626, 192.0, 0.0, 0.0, 0.0, 0.0, 0.0, 0.0, 0.0, 0.0, 0.0, 1.6776157244733057E9, 0.0, 2023-02-28 12:22:04.473
119.0, 27073.058733112663, -4498.959123964206, 15967.929776660178, -3430.4786837671622, 15118.18350770277, 6949.3585168550635, -187500.02235174447, -187500.02235174447, -0.17200000000000001, -0.78, -0.628, 192.0, 250.0, 160.0, 231.0, 160.0, 236.0, 96.0, 0.0, 0.0, 0.0, 1.6776157244763258E9, 0.0, 2023-02-28 12:22:04.476
120.0, 27077.059695370164, -4506.134033934359, 16059.817798115946, -3434.211425091198, 15160.629470423399, 7015.251459509309, -187500.02235174447, -187500.02235174447, -0.17200000000000001, -0.78, -0.628, 192.0, 0.0, 0.0, 0.0, 0.0, 0.0, 0.0, 0.0, 0.0, 0.0, 1.6776157244793506E9, 0.0, 2023-02-28 12:22:04.479
121.0, 27098.338556091614, -4514.292420660547, 16340.466301496781, -3438.2347390931536, 15299.858486635505, 7118.7623880818355, -187500.02235174447, -187500.02235174447, -0.17200000000000001, -0.78, -0.628, 192.0, 0.0, 0.0, 0.0, 0.0, 0.0, 0.0, 0.0, 0.0, 0.0, 1.6776157244842863E9, 0.0, 2023-02-28 12:22:04.484
122.0, 27069.147177832983, -4515.253545672124, 16280.518922867648, -3435.8878059253466, 15271.538826410631, 7065.945215933945, -187500.02235174447, -187500.02235174447, -0.17200000000000001, -0.78, -0.628, 192.0, 0.0, 0.0, 0.0, 0.0, 0.0, 0.0, 0.0, 0.0, 0.0, 1.677615724488306E9, 0.0, 2023-02-28 12:22:04.488
123.0, 27014.720680084312, -4520.282688174569, 16000.675082287204, -3435.0160878915895, 15128.46531015221, 6955.728764024826, -187500.02235174447, -187500.02235174447, -0.17200000000000001, -0.78, -0.628, 192.0, 0.0, 0.0, 0.0, 0.0, 0.0, 0.0, 0.0, 0.0, 0.0, 1.677615724492489E9, 0.0, 2023-02-28 12:22:04.492
124.0, 27012.083174238585, -4526.183548710769, 16020.188155196687, -3439.508788527106, 15132.265106709614, 6997.3700639450635, -187500.02235174447, -187500.02235174447, -0.17200000000000001, -0.78, -0.628, 192.0, 0.0, 0.0, 0.0, 0.0, 0.0, 0.0, 0.0, 0.0, 0.0, 1.6776157244963355E9, 0.0, 2023-02-28 12:22:04.496
125.0, 27048.136538044997, -4528.865758045406, 16308.033920292131, -3443.219178106687, 15277.104410780003, 7117.890670048078, -187500.02235174447, -187500.02235174447, -0.17200000000000001, -0.78, -0.628, 192.0, 0.0, 0.0, 0.0, 0.0, 0.0, 0.0, 0.0, 0.0, 0.0, 1.6776157245003195E9, 0.0, 2023-02-28 12:22:04.500
126.0, 27037.11712802853, -4527.591708611454, 16324.216583277774, -3440.2016926052206, 15290.73897489774, 7094.175469180998, -187500.02235174447, -187500.02235174447, -0.17200000000000001, -0.78, -0.628, 192.0, 0.0, 0.0, 0.0, 0.0, 0.0, 0.0, 0.0, 0.0, 0.0, 1.6776157245033083E9, 0.0, 2023-02-28 12:22:04.503
127.0, 26983.316479124605, -4525.423589399289, 16038.22601297212, -3436.0442681365334, 15149.09597028446, 6972.693738066404, -187500.02235174447, -187500.02235174447, -0.17200000000000001, -0.78, -0.628, 192.0, 0.0, 0.0, 0.0, 0.0, 0.0, 0.0, 0.0, 0.0, 0.0, 1.6776157245072975E9, 0.0, 2023-02-28 12:22:04.507
128.0, 26966.507967294216, -4530.452731901733, 15985.140619890764, -3439.3299745714635, 15119.166984458803, 6977.7675840577585, -187500.02235174447, -187500.02235174447, -0.17200000000000001, -0.78, -0.628, 192.0, 0.0, 0.0, 0.0, 0.0, 0.0, 0.0, 0.0, 0.0, 0.0, 1.677615724511304E9, 0.0, 2023-02-28 12:22:04.511
129.0, 27014.720680084312, -4532.330278435979, 16267.465504105749, -3444.4261723072736, 15262.30755595059, 7098.422300627506, -187500.02235174447, -187500.02235174447, -0.17400000000000002, -0.778, -0.622, 192.0, 250.0, 144.0, 231.0, 176.0, 236.0, 144.0, 0.0, 0.0, 0.0, 1.6776157245162785E9, 0.0, 2023-02-28 12:22:04.516
130.0, 27029.15990700244, -4529.670420845798, 16356.358391804504, -3443.710916484704, 15309.55914372911, 7108.212364698931, -187500.02235174447, -187500.02235174447, -0.17400000000000002, -0.778, -0.622, 192.0, 0.0, 0.0, 0.0, 0.0, 0.0, 0.0, 0.0, 0.0, 0.0, 1.6776157245203173E9, 0.0, 2023-02-28 12:22:04.520
131.0, 26985.01521170321, -4526.652935344331, 16085.812876917467, -3438.6817739822595, 15172.230025795703, 6988.518773140761, -187500.02235174447, -187500.02235174447, -0.17400000000000002, -0.778, -0.622, 192.0, 0.0, 0.0, 0.0, 0.0, 0.0, 0.0, 0.0, 0.0, 0.0, 1.6776157245244024E9, 0.0, 2023-02-28 12:22:04.524
132.0, 26965.256269604717, -4527.077618488982, 15962.788875435457, -3438.9276431712683, 15107.074690708483, 6966.099973452088, -187500.02235174447, -187500.02235174447, -0.17400000000000002, -0.778, -0.622, 192.0, 0.0, 0.0, 0.0, 0.0, 0.0, 0.0, 0.0, 0.0, 0.0, 1.6776157245274513E9, 0.0, 2023-02-28 12:22:04.527
133.0, 27005.914092768922, -4527.547005122543, 16217.107023847942, -3442.414515306296, 15232.2444596582, 7091.157983679532, -187500.02235174447, -187500.02235174447, -0.17400000000000002, -0.778, -0.622, 192.0, 0.0, 0.0, 0.0, 0.0, 0.0, 0.0, 0.0, 0.0, 0.0, 1.67761572453132E9, 0.0, 2023-02-28 12:22:04.531
134.0, 27027.77409884621, -4525.535348121565, 16374.083325157562, -3441.699259483726, 15316.21996357679, 7132.352248710662, -187500.02235174447, -187500.02235174447, -0.17400000000000002, -0.778, -0.622, 192.0, 0.0, 0.0, 0.0, 0.0, 0.0, 0.0, 0.0, 0.0, 0.0, 1.6776157245353973E9, 0.0, 2023-02-28 12:22:04.535
135.0, 26988.680897793878, -4521.869662030896, 16136.86426125339, -3437.027744892567, 15195.855819684963, 7018.492462455329, -187500.02235174447, -187500.02235174447, -0.17400000000000002, -0.778, -0.622, 192.0, 0.0, 0.0, 0.0, 0.0, 0.0, 0.0, 0.0, 0.0, 0.0, 1.6776157245403316E9, 0.0, 2023-02-28 12:22:04.540
136.0, 26958.059007890108, -4523.814263798507, 15952.909404386211, -3436.9159861702906, 15102.514934839599, 6966.524656596739, -187500.02235174447, -187500.02235174447, -0.17400000000000002, -0.778, -0.622, 192.0, 0.0, 0.0, 0.0, 0.0, 0.0, 0.0, 0.0, 0.0, 0.0, 1.6776157245443995E9, 0.0, 2023-02-28 12:22:04.544
137.0, 26993.6206333185, -4528.0387435005605, 16161.451180154227, -3441.8110182060027, 15205.131793633915, 7075.645873027548, -187500.02235174447, -187500.02235174447, -0.17400000000000002, -0.778, -0.622, 192.0, 0.0, 0.0, 0.0, 0.0, 0.0, 0.0, 0.0, 0.0, 0.0, 1.6776157245483496E9, 0.0, 2023-02-28 12:22:04.548
138.0, 27029.316369213626, -4526.831749299973, 16374.418601324393, -3442.9509571732233, 15313.98478913126, 7144.243376760885, -187500.02235174447, -187500.02235174447, -0.17400000000000002, -0.778, -0.622, 192.0, 0.0, 0.0, 0.0, 0.0, 0.0, 0.0, 0.0, 0.0, 0.0, 1.6776157245523064E9, 0.0, 2023-02-28 12:22:04.552
139.0, 26990.916072239408, -4527.368191166901, 16188.34032873396, -3439.866416438391, 15219.615724040954, 7044.912224401502, -187500.02235174447, -187500.02235174447, -0.178, -0.78, -0.616, 192.0, 250.0, 112.0, 231.0, 160.0, 236.0, 192.0, 0.0, 0.0, 0.0, 1.6776157245553937E9, 0.0, 2023-02-28 12:22:04.555
140.0, 26952.024036887175, -4528.731647578675, 15957.02212536599, -3438.9052914268127, 15099.072766193482, 6967.016394974756, -187500.02235174447, -187500.02235174447, -0.178, -0.78, -0.616, 192.0, 0.0, 0.0, 0.0, 0.0, 0.0, 0.0, 0.0, 0.0, 0.0, 1.6776157245594535E9, 0.0, 2023-02-28 12:22:04.559
141.0, 26987.09392393755, -4528.731647578675, 16105.19183936022, -3441.8780734393686, 15170.866569383928, 7056.848055940635, -187500.02235174447, -187500.02235174447, -0.178, -0.78, -0.616, 192.0, 0.0, 0.0, 0.0, 0.0, 0.0, 0.0, 0.0, 0.0, 0.0, 1.6776157245633748E9, 0.0, 2023-02-28 12:22:04.563
142.0, 27023.50491565525, -4530.296269690546, 16361.231072095761, -3443.8003234625253, 15299.567913957586, 7148.803132629769, -187500.02235174447, -187500.02235174447, -0.178, -0.78, -0.616, 192.0, 0.0, 0.0, 0.0, 0.0, 0.0, 0.0, 0.0, 0.0, 0.0, 1.6776157245674157E9, 0.0, 2023-02-28 12:22:04.567
143.0, 26995.945214741852, -4529.178682467781, 16237.603573513457, -3439.419381549285, 15239.665238817364, 7067.554541534727, -187500.02235174447, -187500.02235174447, -0.178, -0.78, -0.616, 192.0, 0.0, 0.0, 0.0, 0.0, 0.0, 0.0, 0.0, 0.0, 0.0, 1.6776157245723565E9, 0.0, 2023-02-28 12:22:04.572
144.0, 26954.43802528835, -4528.105798733926, 15972.981270907077, -3437.0053931481116, 15105.152440685326, 6965.831752518625, -187500.02235174447, -187500.02235174447, -0.178, -0.78, -0.616, 192.0, 0.0, 0.0, 0.0, 0.0, 0.0, 0.0, 0.0, 0.0, 0.0, 1.67761572457635E9, 0.0, 2023-02-28 12:22:04.576
145.0, 26975.068685420596, -4529.84923480144, 16053.872234090833, -3440.8722449388797, 15145.51969117161, 7028.148416060021, -187500.02235174447, -187500.02235174447, -0.178, -0.78, -0.616, 192.0, 0.0, 0.0, 0.0, 0.0, 0.0, 0.0, 0.0, 0.0, 0.0, 1.6776157245805116E9, 0.0, 2023-02-28 12:22:04.580
146.0, 27017.201723718852, -4534.3195836925015, 16334.453682238303, -3444.7167449851927, 15287.766192885185, 7137.4260947020175, -187500.02235174447, -187500.02235174447, -0.178, -0.78, -0.616, 192.0, 0.0, 0.0, 0.0, 0.0, 0.0, 0.0, 0.0, 0.0, 0.0, 1.6776157245843449E9, 0.0, 2023-02-28 12:22:04.584
147.0, 26997.509836853726, -4535.772447082097, 16285.279844436629, -3441.5875007614495, 15262.59812862851, 7085.525344076794, -187500.02235174447, -187500.02235174447, -0.178, -0.78, -0.616, 192.0, 0.0, 0.0, 0.0, 0.0, 0.0, 0.0, 0.0, 0.0, 0.0, 1.67761572458739E9, 0.0, 2023-02-28 12:22:04.587
148.0, 26943.440967016337, -4539.907519806328, 16002.150297421254, -3439.8217129494806, 15114.495469867645, 6970.5479705986945, -187500.02235174447, -187500.02235174447, -0.178, -0.78, -0.616, 192.0, 0.0, 0.0, 0.0, 0.0, 0.0, 0.0, 0.0, 0.0, 0.0, 1.6776157245913928E9, 0.0, 2023-02-28 12:22:04.591
149.0, 26952.649885731924, -4542.679136118786, 16009.436966113684, -3444.0685443959887, 15114.629580334376, 7003.047407036711, -187500.02235174447, -187500.02235174447, -0.178, -0.774, -0.622, 192.0, 250.0, 112.0, 231.0, 208.0, 236.0, 144.0, 0.0, 0.0, 0.0, 1.6776157245963914E9, 0.0, 2023-02-28 12:22:04.596
150.0, 27003.76832530121, -4543.260281474624, 16298.199152731795, -3447.957747931212, 15261.279375705646, 7129.111245764643, -187500.02235174447, -187500.02235174447, -0.178, -0.774, -0.622, 192.0, 0.0, 0.0, 0.0, 0.0, 0.0, 0.0, 0.0, 0.0, 0.0, 1.6776157246004772E9, 0.0, 2023-02-28 12:22:04.600
151.0, 27007.88104628099, -4540.511016906621, 16324.730673400245, -3446.5048845416172, 15275.092753779025, 7111.5427746227715, -187500.02235174447, -187500.02235174447, -0.178, -0.774, -0.622, 192.0, 0.0, 0.0, 0.0, 0.0, 0.0, 0.0, 0.0, 0.0, 0.0, 1.67761572460445E9, 0.0, 2023-02-28 12:22:04.604
152.0, 26958.081359634565, -4537.940566294261, 16041.467015918139, -3442.995660662134, 15133.270935210103, 6990.351616186097, -187500.02235174447, -187500.02235174447, -0.178, -0.774, -0.622, 192.0, 0.0, 0.0, 0.0, 0.0, 0.0, 0.0, 0.0, 0.0, 0.0, 1.6776157246084397E9, 0.0, 2023-02-28 12:22:04.608
153.0, 26936.71309193529, -4540.734534351174, 15976.177570364187, -3444.292061840542, 15096.457612092212, 6994.017302276767, -187500.02235174447, -187500.02235174447, -0.178, -0.774, -0.622, 192.0, 0.0, 0.0, 0.0, 0.0, 0.0, 0.0, 0.0, 0.0, 0.0, 1.6776157246113937E9, 0.0, 2023-02-28 12:22:04.611
154.0, 26994.000612974243, -4538.23113897218, 16253.383905098905, -3446.5048845416172, 15235.954849237783, 7120.4611206604395, -187500.02235174447, -187500.02235174447, -0.178, -0.774, -0.622, 192.0, 0.0, 0.0, 0.0, 0.0, 0.0, 0.0, 0.0, 0.0, 0.0, 1.6776157246154056E9, 0.0, 2023-02-28 12:22:04.615
155.0, 27008.68570908138, -4538.052325016538, 16353.51972025868, -3445.4543525522176, 15288.54850394112, 7129.7370946093915, -187500.02235174447, -187500.02235174447, -0.178, -0.774, -0.622, 192.0, 0.0, 0.0, 0.0, 0.0, 0.0, 0.0, 0.0, 0.0, 0.0, 1.6776157246194072E9, 0.0, 2023-02-28 12:22:04.619
156.0, 26951.420539786883, -4540.220444228702, 16088.13745834082, -3441.8780734393686, 15158.818979122518, 7005.662561137982, -187500.02235174447, -187500.02235174447, -0.178, -0.774, -0.622, 192.0, 0.0, 0.0, 0.0, 0.0, 0.0, 0.0, 0.0, 0.0, 0.0, 1.6776157246244857E9, 0.0, 2023-02-28 12:22:04.624
157.0, 26931.527487221658, -4542.94735705225, 15955.882186398769, -3443.330936828964, 15090.914379467295, 6980.203924203387, -187500.02235174447, -187500.02235174447, -0.178, -0.774, -0.622, 192.0, 0.0, 0.0, 0.0, 0.0, 0.0, 0.0, 0.0, 0.0, 0.0, 1.6776157246284852E9, 0.0, 2023-02-28 12:22:04.628
158.0, 26991.318403639605, -4541.941528551761, 16202.511334718625, -3448.896521198335, 15214.96656119425, 7100.456309372939, -187500.02235174447, -187500.02235174447, -0.178, -0.774, -0.622, 192.0, 0.0, 0.0, 0.0, 0.0, 0.0, 0.0, 0.0, 0.0, 0.0, 1.6776157246324956E9, 0.0, 2023-02-28 12:22:04.632
159.0, 27005.86938928001, -4546.434229187278, 16369.255348355216, -3450.2599776101088, 15296.706890667307, 7145.606833172659, -187500.02235174447, -187500.02235174447, -0.178, -0.776, -0.62, 192.0, 250.0, 112.0, 231.0, 192.0, 236.0, 160.0, 0.0, 0.0, 0.0, 1.677615724636459E9, 0.0, 2023-02-28 12:22:04.636
160.0, 26961.14354862494, -4547.440057687767, 16140.708761299702, -3447.1083816419105, 15179.382584021401, 7028.81896839368, -187500.02235174447, -187500.02235174447, -0.178, -0.776, -0.62, 192.0, 0.0, 0.0, 0.0, 0.0, 0.0, 0.0, 0.0, 0.0, 0.0, 1.677615724639534E9, 0.0, 2023-02-28 12:22:04.639
161.0, 26935.61785645698, -4547.082429776482, 15950.741285174046, -3447.0189746640895, 15081.683109007254, 6971.240874676809, -187500.02235174447, -187500.02235174447, -0.178, -0.776, -0.62, 192.0, 0.0, 0.0, 0.0, 0.0, 0.0, 0.0, 0.0, 0.0, 0.0, 1.6776157246435232E9, 0.0, 2023-02-28 12:22:04.643
162.0, 26977.080342421574, -4545.428400686789, 16149.358886403907, -3450.0364601655556, 15179.24847355467, 7076.852867228135, -187500.02235174447, -187500.02235174447, -0.178, -0.776, -0.62, 192.0, 0.0, 0.0, 0.0, 0.0, 0.0, 0.0, 0.0, 0.0, 0.0, 1.6776157246474912E9, 0.0, 2023-02-28 12:22:04.647
163.0, 27006.472886380303, -4543.662612874819, 16368.987127421753, -3449.8799979543687, 15290.02371907517, 7151.239472775397, -187500.02235174447, -187500.02235174447, -0.178, -0.776, -0.62, 192.0, 0.0, 0.0, 0.0, 0.0, 0.0, 0.0, 0.0, 0.0, 0.0, 1.6776157246514785E9, 0.0, 2023-02-28 12:22:04.651
164.0, 26972.47588306378, -4537.828807571985, 16190.955482835232, -3443.4873990401506, 15204.237723855702, 7050.991898893345, -187500.02235174447, -187500.02235174447, -0.178, -0.776, -0.62, 192.0, 0.0, 0.0, 0.0, 0.0, 0.0, 0.0, 0.0, 0.0, 0.0, 1.6776157246564782E9, 0.0, 2023-02-28 12:22:04.656
165.0, 26942.90452514941, -4534.2078249702245, 15953.177625319675, -3440.291099583042, 15082.55482704101, 6977.499363124295, -187500.02235174447, -187500.02235174447, -0.178, -0.776, -0.62, 192.0, 0.0, 0.0, 0.0, 0.0, 0.0, 0.0, 0.0, 0.0, 0.0, 1.677615724660547E9, 0.0, 2023-02-28 12:22:04.660
166.0, 26976.946231954844, -4533.537272636566, 16091.46786826466, -3443.710916484704, 15153.275746497602, 7060.3572798201185, -187500.02235174447, -187500.02235174447, -0.178, -0.776, -0.62, 192.0, 0.0, 0.0, 0.0, 0.0, 0.0, 0.0, 0.0, 0.0, 0.0, 1.6776157246644697E9, 0.0, 2023-02-28 12:22:04.664
167.0, 27013.044299250163, -4534.18547322577, 16348.267060311684, -3445.387297318852, 15285.441611461833, 7152.625280931626, -187500.02235174447, -187500.02235174447, -0.178, -0.776, -0.62, 192.0, 0.0, 0.0, 0.0, 0.0, 0.0, 0.0, 0.0, 0.0, 0.0, 1.677615724667544E9, 0.0, 2023-02-28 12:22:04.667
168.0, 26978.44379883335, -4537.873511060895, 16236.530689779604, -3442.258053095109, 15230.232802657225, 7074.7965067382465, -187500.02235174447, -187500.02235174447, -0.178, -0.776, -0.62, 192.0, 0.0, 0.0, 0.0, 0.0, 0.0, 0.0, 0.0, 0.0, 0.0, 1.6776157246714935E9, 0.0, 2023-02-28 12:22:04.671
169.0, 26931.527487221658, -4542.142694251859, 15968.510922016016, -3441.2969280835305, 15091.27200737858, 6974.347767156097, -187500.02235174447, -187500.02235174447, -0.17400000000000002, -0.778, -0.622, 192.0, 250.0, 144.0, 231.0, 176.0, 236.0, 144.0, 0.0, 0.0, 0.0, 1.6776157246754637E9, 0.0, 2023-02-28 12:22:04.675
170.0, 26949.565344997092, -4546.545987909554, 16036.974315282621, -3445.7225734856816, 15124.620810105898, 7033.132855073554, -187500.02235174447, -187500.02235174447, -0.17400000000000002, -0.778, -0.622, 192.0, 0.0, 0.0, 0.0, 0.0, 0.0, 0.0, 0.0, 0.0, 0.0, 1.6776157246795063E9, 0.0, 2023-02-28 12:22:04.679
171.0, 26986.021040203697, -4550.837522844973, 16319.634475664436, -3449.6341287653604, 15266.30851820809, 7142.924623838023, -187500.02235174447, -187500.02235174447, -0.17400000000000002, -0.778, -0.622, 192.0, 0.0, 0.0, 0.0, 0.0, 0.0, 0.0, 0.0, 0.0, 0.0, 1.6776157246844733E9, 0.0, 2023-02-28 12:22:04.684
172.0, 26977.639136032958, -4547.775333854596, 16280.898902523388, -3446.7731054750807, 15251.623422100953, 7096.567105837716, -187500.02235174447, -187500.02235174447, -0.17400000000000002, -0.778, -0.622, 192.0, 0.0, 0.0, 0.0, 0.0, 0.0, 0.0, 0.0, 0.0, 0.0, 1.6776157246895072E9, 0.0, 2023-02-28 12:22:04.689
173.0, 26937.160126824398, -4545.026069286593, 15997.88111423029, -3444.001489162623, 15111.567391343999, 6981.321511426153, -187500.02235174447, -187500.02235174447, -0.17400000000000002, -0.778, -0.622, 192.0, 0.0, 0.0, 0.0, 0.0, 0.0, 0.0, 0.0, 0.0, 0.0, 1.677615724692489E9, 0.0, 2023-02-28 12:22:04.692
174.0, 26940.7587576817, -4547.440057687767, 15996.8752857298, -3447.890692697846, 15108.438147120256, 7007.651866394504, -187500.02235174447, -187500.02235174447, -0.17400000000000002, -0.778, -0.622, 192.0, 0.0, 0.0, 0.0, 0.0, 0.0, 0.0, 0.0, 0.0, 0.0, 1.6776157246965084E9, 0.0, 2023-02-28 12:22:04.696
175.0, 26988.591490816056, -4549.80934260003, 16285.235140947718, -3452.15987588881, 15252.517491879165, 7125.780835840802, -187500.02235174447, -187500.02235174447, -0.17400000000000002, -0.778, -0.622, 192.0, 0.0, 0.0, 0.0, 0.0, 0.0, 0.0, 0.0, 0.0, 0.0, 1.6776157246995018E9, 0.0, 2023-02-28 12:22:04.699
176.0, 26991.921900739897, -4549.1164385219145, 16323.881307110943, -3450.483495054662, 15274.355146212, 7110.894574033568, -187500.02235174447, -187500.02235174447, -0.17400000000000002, -0.778, -0.622, 192.0, 0.0, 0.0, 0.0, 0.0, 0.0, 0.0, 0.0, 0.0, 0.0, 1.6776157247035522E9, 0.0, 2023-02-28 12:22:04.703
177.0, 26946.503156006715, -4545.316641964512, 16042.361085696351, -3446.4601810527065, 15131.95218228724, 6989.5693051301605, -187500.02235174447, -187500.02235174447, -0.17400000000000002, -0.778, -0.622, 192.0, 0.0, 0.0, 0.0, 0.0, 0.0, 0.0, 0.0, 0.0, 0.0, 1.677615724707618E9, 0.0, 2023-02-28 12:22:04.707
178.0, 26938.836507658543, -4545.763676853619, 15967.460390026617, -3448.471838053684, 15092.993091701639, 6986.216543461865, -187500.02235174447, -187500.02235174447, -0.17400000000000002, -0.778, -0.622, 192.0, 0.0, 0.0, 0.0, 0.0, 0.0, 0.0, 0.0, 0.0, 0.0, 1.6776157247125473E9, 0.0, 2023-02-28 12:22:04.712
179.0, 26983.562348313615, -4545.495455920155, 16241.40337007086, -3452.15987588881, 15231.618610813453, 7109.397007155062, -187500.02235174447, -187500.02235174447, -0.166, -0.778, -0.622, 192.0, 250.0, 208.0, 231.0, 176.0, 236.0, 144.0, 0.0, 0.0, 0.0, 1.67761572471654E9, 0.0, 2023-02-28 12:22:04.716
180.0, 26992.72656354029, -4544.400220441845, 16352.46918826928, -3450.192922376743, 15290.336643497545, 7127.658382375048, -187500.02235174447, -187500.02235174447, -0.166, -0.778, -0.622, 192.0, 0.0, 0.0, 0.0, 0.0, 0.0, 0.0, 0.0, 0.0, 0.0, 1.6776157247195525E9, 0.0, 2023-02-28 12:22:04.719
181.0, 26948.738330452245, -4543.752019852641, 16093.211304332175, -3445.543759530039, 15161.031801823594, 7007.070721038666, -187500.02235174447, -187500.02235174447, -0.166, -0.778, -0.622, 192.0, 0.0, 0.0, 0.0, 0.0, 0.0, 0.0, 0.0, 0.0, 0.0, 1.677615724723652E9, 0.0, 2023-02-28 12:22:04.723
182.0, 26930.789879654632, -4545.763676853619, 15953.82582590888, -3445.677869996771, 15089.059184677504, 6977.119383468555, -187500.02235174447, -187500.02235174447, -0.166, -0.778, -0.622, 192.0, 0.0, 0.0, 0.0, 0.0, 0.0, 0.0, 0.0, 0.0, 0.0, 1.6776157247275178E9, 0.0, 2023-02-28 12:22:04.727
183.0, 26964.85393820452, -4551.396316456356, 16196.208142782229, -3451.6457857663377, 15208.864534957951, 7097.55058259375, -187500.02235174447, -187500.02235174447, -0.166, -0.778, -0.622, 192.0, 0.0, 0.0, 0.0, 0.0, 0.0, 0.0, 0.0, 0.0, 0.0, 1.677615724731506E9, 0.0, 2023-02-28 12:22:04.731
184.0, 26991.29605189515, -4553.542083924065, 16372.451647812326, -3454.2609398676086, 15296.483373222754, 7146.769123884335, -187500.02235174447, -187500.02235174447, -0.166, -0.778, -0.622, 192.0, 0.0, 0.0, 0.0, 0.0, 0.0, 0.0, 0.0, 0.0, 0.0, 1.6776157247356012E9, 0.0, 2023-02-28 12:22:04.735
185.0, 26947.888964162943, -4553.743249624164, 16150.923508515778, -3450.707012499215, 15183.04827011207, 7036.239747552842, -187500.02235174447, -187500.02235174447, -0.166, -0.778, -0.622, 192.0, 0.0, 0.0, 0.0, 0.0, 0.0, 0.0, 0.0, 0.0, 0.0, 1.677615724739668E9, 0.0, 2023-02-28 12:22:04.739
186.0, 26921.580960939045, -4554.749078124652, 15953.982288120067, -3449.6564805098155, 15085.013518931095, 6975.375947401041, -187500.02235174447, -187500.02235174447, -0.166, -0.778, -0.622, 192.0, 0.0, 0.0, 0.0, 0.0, 0.0, 0.0, 0.0, 0.0, 0.0, 1.6776157247445583E9, 0.0, 2023-02-28 12:22:04.744
187.0, 26962.81992945909, -4552.156275767837, 16144.642668323837, -3452.763372989103, 15183.160028834347, 7079.624483540593, -187500.02235174447, -187500.02235174447, -0.166, -0.778, -0.622, 192.0, 0.0, 0.0, 0.0, 0.0, 0.0, 0.0, 0.0, 0.0, 0.0, 1.6776157247475245E9, 0.0, 2023-02-28 12:22:04.747
188.0, 26998.470961865303, -4547.842389087962, 16370.529397789169, -3452.6963177557373, 15298.517381968188, 7158.213217045452, -187500.02235174447, -187500.02235174447, -0.166, -0.778, -0.622, 192.0, 0.0, 0.0, 0.0, 0.0, 0.0, 0.0, 0.0, 0.0, 0.0, 1.677615724751623E9, 0.0, 2023-02-28 12:22:04.751
189.0, 26976.722714510288, -4540.935700051272, 16200.834953884478, -3445.7672769745923, 15215.637113527908, 7063.0171374103, -187500.02235174447, -187500.02235174447, -0.17200000000000001, -0.774, -0.622, 192.0, 250.0, 160.0, 231.0, 208.0, 236.0, 144.0, 0.0, 0.0, 0.0, 1.6776157247556164E9, 0.0, 2023-02-28 12:22:04.755
190.0, 26943.75389143871, -4538.7228773501965, 15960.129017845276, -3443.934433929257, 15094.043623691037, 6977.924046268946, -187500.02235174447, -187500.02235174447, -0.17200000000000001, -0.774, -0.622, 192.0, 0.0, 0.0, 0.0, 0.0, 0.0, 0.0, 0.0, 0.0, 0.0, 1.677615724759621E9, 0.0, 2023-02-28 12:22:04.759
191.0, 26973.660525519914, -4539.169912239303, 16091.33375779793, -3448.449486309229, 15158.930737844794, 7060.893721687045, -187500.02235174447, -187500.02235174447, -0.17200000000000001, -0.774, -0.622, 192.0, 0.0, 0.0, 0.0, 0.0, 0.0, 0.0, 0.0, 0.0, 0.0, 1.6776157247636538E9, 0.0, 2023-02-28 12:22:04.763
192.0, 27008.48454338128, -4543.930833808284, 16355.620784237479, -3451.8916549553464, 15292.750631898718, 7157.900292623079, -187500.02235174447, -187500.02235174447, -0.17200000000000001, -0.774, -0.622, 192.0, 0.0, 0.0, 0.0, 0.0, 0.0, 0.0, 0.0, 0.0, 0.0, 1.6776157247676363E9, 0.0, 2023-02-28 12:22:04.767
193.0, 26978.846130233545, -4549.4070111998335, 16253.942698710287, -3450.0811636544663, 15243.06270397457, 7083.066652186711, -187500.02235174447, -187500.02235174447, -0.17200000000000001, -0.774, -0.622, 192.0, 0.0, 0.0, 0.0, 0.0, 0.0, 0.0, 0.0, 0.0, 0.0, 1.677615724772668E9, 0.0, 2023-02-28 12:22:04.772
194.0, 26940.579943726058, -4551.5751304119985, 15985.207675124131, -3449.0082799206116, 15107.052338964028, 6977.879342780036, -187500.02235174447, -187500.02235174447, -0.17200000000000001, -0.774, -0.622, 192.0, 0.0, 0.0, 0.0, 0.0, 0.0, 0.0, 0.0, 0.0, 0.0, 1.6776157247756605E9, 0.0, 2023-02-28 12:22:04.775
195.0, 26958.684856734857, -4556.067831047515, 16045.55738515346, -3453.121000900388, 15135.23788872217, 7029.713038171893, -187500.02235174447, -187500.02235174447, -0.17200000000000001, -0.774, -0.622, 192.0, 0.0, 0.0, 0.0, 0.0, 0.0, 0.0, 0.0, 0.0, 0.0, 1.6776157247796173E9, 0.0, 2023-02-28 12:22:04.779
196.0, 26992.324232140094, -4559.219427015713, 16331.011513592186, -3456.5855212909605, 15276.702079379807, 7141.181187770509, -187500.02235174447, -187500.02235174447, -0.17200000000000001, -0.774, -0.622, 192.0, 0.0, 0.0, 0.0, 0.0, 0.0, 0.0, 0.0, 0.0, 0.0, 1.6776157247836351E9, 0.0, 2023-02-28 12:22:04.783
197.0, 26974.71105750931, -4558.660633404331, 16303.98825454572, -3453.411573578307, 15265.190930985324, 7097.327065149197, -187500.02235174447, -187500.02235174447, -0.17200000000000001, -0.774, -0.622, 192.0, 0.0, 0.0, 0.0, 0.0, 0.0, 0.0, 0.0, 0.0, 0.0, 1.6776157247876332E9, 0.0, 2023-02-28 12:22:04.787
198.0, 26925.827792385557, -4558.012432815127, 16019.562306351938, -3450.3046810990195, 15121.692731582252, 6979.242799191809, -187500.02235174447, -187500.02235174447, -0.17200000000000001, -0.774, -0.622, 192.0, 0.0, 0.0, 0.0, 0.0, 0.0, 0.0, 0.0, 0.0, 0.0, 1.6776157247916164E9, 0.0, 2023-02-28 12:22:04.791
199.0, 26940.177612325864, -4556.4478107032555, 16004.698396289159, -3452.5845590334607, 15112.595571588943, 7004.656732637493, -187500.02235174447, -187500.02235174447, -0.17400000000000002, -0.774, -0.62, 192.0, 250.0, 144.0, 231.0, 208.0, 236.0, 160.0, 0.0, 0.0, 0.0, 1.6776157247955787E9, 0.0, 2023-02-28 12:22:04.795
200.0, 26991.139589683964, -4555.598444413954, 16290.756021828178, -3455.4679340681955, 15261.301727450102, 7126.853719574657, -187500.02235174447, -187500.02235174447, -0.17400000000000002, -0.774, -0.62, 192.0, 0.0, 0.0, 0.0, 0.0, 0.0, 0.0, 0.0, 0.0, 0.0, 1.6776157248016655E9, 0.0, 2023-02-28 12:22:04.801
201.0, 26985.886929736964, -4558.2135985152245, 16339.304010785105, -3454.0150706786003, 15288.034413818648, 7114.113225235132, -187500.02235174447, -187500.02235174447, -0.17400000000000002, -0.774, -0.62, 192.0, 0.0, 0.0, 0.0, 0.0, 0.0, 0.0, 0.0, 0.0, 0.0, 1.67761572480465E9, 0.0, 2023-02-28 12:22:04.804
202.0, 26941.630475715458, -4559.822924116007, 16061.762399883557, -3451.5340270440615, 15146.86079583893, 6989.502249896795, -187500.02235174447, -187500.02235174447, -0.17400000000000002, -0.774, -0.62, 192.0, 0.0, 0.0, 0.0, 0.0, 0.0, 0.0, 0.0, 0.0, 0.0, 1.6776157248087447E9, 0.0, 2023-02-28 12:22:04.808
203.0, 26939.23883905874, -4559.66646190482, 15977.898654687246, -3453.9480154452344, 15101.643216805842, 6982.9978922603, -187500.02235174447, -187500.02235174447, -0.17400000000000002, -0.774, -0.62, 192.0, 0.0, 0.0, 0.0, 0.0, 0.0, 0.0, 0.0, 0.0, 0.0, 1.6776157248116958E9, 0.0, 2023-02-28 12:22:04.811
204.0, 26989.01617396071, -4558.906502593339, 16248.064189918541, -3458.1948468917426, 15237.58652658302, 7108.659399588037, -187500.02235174447, -187500.02235174447, -0.17400000000000002, -0.774, -0.62, 192.0, 0.0, 0.0, 0.0, 0.0, 0.0, 0.0, 0.0, 0.0, 0.0, 1.6776157248156528E9, 0.0, 2023-02-28 12:22:04.815
205.0, 26997.86746476501, -4557.699508392752, 16368.517740788191, -3456.8090387355137, 15299.634969190953, 7132.620469644126, -187500.02235174447, -187500.02235174447, -0.17400000000000002, -0.774, -0.62, 192.0, 0.0, 0.0, 0.0, 0.0, 0.0, 0.0, 0.0, 0.0, 0.0, 1.6776157248196328E9, 0.0, 2023-02-28 12:22:04.819
206.0, 26944.08916760554, -4557.788915370574, 16112.992598175122, -3452.15987588881, 15170.553644961554, 7012.703360641403, -187500.02235174447, -187500.02235174447, -0.17400000000000002, -0.774, -0.62, 192.0, 0.0, 0.0, 0.0, 0.0, 0.0, 0.0, 0.0, 0.0, 0.0, 1.677615724823746E9, 0.0, 2023-02-28 12:22:04.823
207.0, 26925.89484761892, -4556.000775814149, 15962.475951013084, -3451.2881578550528, 15094.55771381351, 6977.029976490734, -187500.02235174447, -187500.02235174447, -0.17400000000000002, -0.774, -0.62, 192.0, 0.0, 0.0, 0.0, 0.0, 0.0, 0.0, 0.0, 0.0, 0.0, 1.677615724828706E9, 0.0, 2023-02-28 12:22:04.828
208.0, 26969.972487684787, -4557.18541827028, 16195.783459637578, -3455.6243962793824, 15213.737215249208, 7093.4602133584285, -187500.02235174447, -187500.02235174447, -0.17400000000000002, -0.774, -0.62, 192.0, 0.0, 0.0, 0.0, 0.0, 0.0, 0.0, 0.0, 0.0, 0.0, 1.6776157248316665E9, 0.0, 2023-02-28 12:22:04.831
209.0, 27000.594377588557, -4557.85597060394, 16378.128990903973, -3455.1103061569106, 15307.994521617238, 7145.4727227059275, -187500.02235174447, -187500.02235174447, -0.17200000000000001, -0.774, -0.624, 192.0, 250.0, 160.0, 231.0, 208.0, 236.0, 128.0, 0.0, 0.0, 0.0, 1.6776157248356588E9, 0.0, 2023-02-28 12:22:04.835
210.0, 26959.735388724257, -4558.146543281859, 16163.284023199561, -3451.2434543661425, 15199.610912753453, 7035.68095394146, -187500.02235174447, -187500.02235174447, -0.17200000000000001, -0.774, -0.624, 192.0, 0.0, 0.0, 0.0, 0.0, 0.0, 0.0, 0.0, 0.0, 0.0, 1.6776157248396904E9, 0.0, 2023-02-28 12:22:04.839
211.0, 26932.04157734413, -4559.4429444602665, 15959.726686445081, -3450.841122965947, 15097.999882459628, 6970.0785839651335, -187500.02235174447, -187500.02235174447, -0.17200000000000001, -0.774, -0.624, 192.0, 0.0, 0.0, 0.0, 0.0, 0.0, 0.0, 0.0, 0.0, 0.0, 1.677615724843654E9, 0.0, 2023-02-28 12:22:04.843
212.0, 26954.326266566073, -4565.790839885573, 16142.787473534045, -3456.741983502148, 15188.345633547979, 7068.87329445759, -187500.02235174447, -187500.02235174447, -0.17200000000000001, -0.774, -0.624, 192.0, 0.0, 0.0, 0.0, 0.0, 0.0, 0.0, 0.0, 0.0, 0.0, 1.677615724847677E9, 0.0, 2023-02-28 12:22:04.847
213.0, 26989.753781527732, -4567.534275953088, 16377.614900781502, -3459.267730625598, 15305.893457638438, 7145.048039561277, -187500.02235174447, -187500.02235174447, -0.17200000000000001, -0.774, -0.624, 192.0, 0.0, 0.0, 0.0, 0.0, 0.0, 0.0, 0.0, 0.0, 0.0, 1.6776157248516395E9, 0.0, 2023-02-28 12:22:04.851
214.0, 26968.72078999529, -4563.041575317571, 16219.431605271293, -3454.5515125455277, 15227.662352044863, 7050.969547148889, -187500.02235174447, -187500.02235174447, -0.17200000000000001, -0.774, -0.624, 192.0, 0.0, 0.0, 0.0, 0.0, 0.0, 0.0, 0.0, 0.0, 0.0, 1.6776157248567352E9, 0.0, 2023-02-28 12:22:04.856
215.0, 26928.353539509004, -4560.337014238478, 15971.237834839563, -3451.6010822774274, 15101.643216805842, 6962.0990111945885, -187500.02235174447, -187500.02235174447, -0.17200000000000001, -0.774, -0.624, 192.0, 0.0, 0.0, 0.0, 0.0, 0.0, 0.0, 0.0, 0.0, 0.0, 1.6776157248597465E9, 0.0, 2023-02-28 12:22:04.859
216.0, 26950.682932219857, -4561.4769532057, 16090.37263278635, -3455.937320701757, 15159.3777727339, 7036.530320230761, -187500.02235174447, -187500.02235174447, -0.17200000000000001, -0.774, -0.624, 192.0, 0.0, 0.0, 0.0, 0.0, 0.0, 0.0, 0.0, 0.0, 0.0, 1.6776157248637528E9, 0.0, 2023-02-28 12:22:04.863
217.0, 26996.191083930862, -4559.889979349373, 16359.711153472801, -3457.993681191645, 15295.723413911273, 7140.55533892576, -187500.02235174447, -187500.02235174447, -0.17200000000000001, -0.774, -0.624, 192.0, 0.0, 0.0, 0.0, 0.0, 0.0, 0.0, 0.0, 0.0, 0.0, 1.6776157248676958E9, 0.0, 2023-02-28 12:22:04.867
218.0, 26985.216377403307, -4555.419630458311, 16269.052477962075, -3453.2327596226646, 15252.785712812629, 7073.500105559839, -187500.02235174447, -187500.02235174447, -0.17200000000000001, -0.774, -0.624, 192.0, 0.0, 0.0, 0.0, 0.0, 0.0, 0.0, 0.0, 0.0, 0.0, 1.677615724871764E9, 0.0, 2023-02-28 12:22:04.871
219.0, 26950.370007797483, -4552.670365890309, 15994.349538606351, -3449.9694049321897, 15114.003731489627, 6970.3691566430525, -187500.02235174447, -187500.02235174447, -0.176, -0.772, -0.62, 192.0, 250.0, 128.0, 231.0, 224.0, 236.0, 160.0, 0.0, 0.0, 0.0, 1.6776157248757408E9, 0.0, 2023-02-28 12:22:04.875
220.0, 26951.688760720346, -4557.699508392752, 16040.640001373293, -3452.830428222469, 15134.120301499404, 7021.085264812144, -187500.02235174447, -187500.02235174447, -0.176, -0.772, -0.62, 192.0, 0.0, 0.0, 0.0, 0.0, 0.0, 0.0, 0.0, 0.0, 0.0, 1.6776157248797624E9, 0.0, 2023-02-28 12:22:04.879
221.0, 26993.48652285177, -4561.052270061048, 16326.921144356866, -3456.1831898907653, 15277.17146601337, 7136.88965283509, -187500.02235174447, -187500.02235174447, -0.176, -0.772, -0.62, 192.0, 0.0, 0.0, 0.0, 0.0, 0.0, 0.0, 0.0, 0.0, 0.0, 1.6776157248847284E9, 0.0, 2023-02-28 12:22:04.884
222.0, 26993.28535715167, -4558.057136304037, 16309.307969726084, -3452.316338099997, 15272.365840955477, 7097.751748293847, -187500.02235174447, -187500.02235174447, -0.176, -0.772, -0.62, 192.0, 0.0, 0.0, 0.0, 0.0, 0.0, 0.0, 0.0, 0.0, 0.0, 1.6776157248877337E9, 0.0, 2023-02-28 12:22:04.887
223.0, 26947.933667651854, -4555.531389180588, 16022.311570919941, -3448.0024514201227, 15130.119339241905, 6979.6451305920045, -187500.02235174447, -187500.02235174447, -0.176, -0.772, -0.62, 192.0, 0.0, 0.0, 0.0, 0.0, 0.0, 0.0, 0.0, 0.0, 0.0, 1.677615724891739E9, 0.0, 2023-02-28 12:22:04.891
224.0, 26937.85303090251, -4558.99590957116, 15997.41172759673, -3451.422268321785, 15117.200030946737, 6999.024093034755, -187500.02235174447, -187500.02235174447, -0.176, -0.772, -0.62, 192.0, 0.0, 0.0, 0.0, 0.0, 0.0, 0.0, 0.0, 0.0, 0.0, 1.6776157248957393E9, 0.0, 2023-02-28 12:22:04.895
225.0, 26984.210548902818, -4561.409897972333, 16283.581111858024, -3456.5184660575947, 15262.933404795338, 7121.26578346083, -187500.02235174447, -187500.02235174447, -0.176, -0.772, -0.62, 192.0, 0.0, 0.0, 0.0, 0.0, 0.0, 0.0, 0.0, 0.0, 0.0, 1.6776157248997324E9, 0.0, 2023-02-28 12:22:04.899
226.0, 26987.317441382103, -4561.409897972333, 16343.997877120719, -3454.5738642899832, 15295.83517263355, 7118.002428770355, -187500.02235174447, -187500.02235174447, -0.176, -0.772, -0.62, 192.0, 0.0, 0.0, 0.0, 0.0, 0.0, 0.0, 0.0, 0.0, 0.0, 1.6776157249036827E9, 0.0, 2023-02-28 12:22:04.903
227.0, 26942.926876893864, -4560.784049127585, 16066.903301108277, -3450.0811636544663, 15155.220348265213, 6996.520697655761, -187500.02235174447, -187500.02235174447, -0.176, -0.772, -0.62, 192.0, 0.0, 0.0, 0.0, 0.0, 0.0, 0.0, 0.0, 0.0, 0.0, 1.6776157249077773E9, 0.0, 2023-02-28 12:22:04.907
228.0, 26931.259266288194, -4563.801534629051, 15970.746096461547, -3453.3668700893963, 15103.498411595632, 6985.970674272857, -187500.02235174447, -187500.02235174447, -0.176, -0.772, -0.62, 192.0, 0.0, 0.0, 0.0, 0.0, 0.0, 0.0, 0.0, 0.0, 0.0, 1.6776157249117925E9, 0.0, 2023-02-28 12:22:04.911
229.0, 26966.686781249857, -4569.635339931887, 16238.07296014702, -3459.9829864481676, 15235.284296904123, 7108.2570681878415, -187500.02235174447, -187500.02235174447, -0.182, -0.772, -0.622, 192.0, 250.0, 80.0, 231.0, 224.0, 236.0, 144.0, 0.0, 0.0, 0.0, 1.6776157249147427E9, 0.0, 2023-02-28 12:22:04.914
230.0, 26976.722714510288, -4572.09403182197, 16369.456514055315, -3460.385317848363, 15307.480431494765, 7132.084027777199, -187500.02235174447, -187500.02235174447, -0.182, -0.772, -0.622, 192.0, 0.0, 0.0, 0.0, 0.0, 0.0, 0.0, 0.0, 0.0, 0.0, 1.677615724918733E9, 0.0, 2023-02-28 12:22:04.918
231.0, 26937.85303090251, -4570.104726565448, 16116.792394732523, -3455.669099768293, 15181.237778811192, 7012.81511936368, -187500.02235174447, -187500.02235174447, -0.182, -0.772, -0.622, 192.0, 0.0, 0.0, 0.0, 0.0, 0.0, 0.0, 0.0, 0.0, 0.0, 1.677615724923872E9, 0.0, 2023-02-28 12:22:04.923
232.0, 26920.306911505093, -4570.507057965643, 15957.245642810542, -3456.0714311684887, 15099.408042360312, 6970.950301998891, -187500.02235174447, -187500.02235174447, -0.182, -0.772, -0.622, 192.0, 0.0, 0.0, 0.0, 0.0, 0.0, 0.0, 0.0, 0.0, 0.0, 1.6776157249277332E9, 0.0, 2023-02-28 12:22:04.927
233.0, 26964.00457191522, -4571.28936902158, 16184.741697876658, -3460.1394486593545, 15214.631285027419, 7085.21241965442, -187500.02235174447, -187500.02235174447, -0.182, -0.772, -0.622, 192.0, 0.0, 0.0, 0.0, 0.0, 0.0, 0.0, 0.0, 0.0, 0.0, 1.6776157249317663E9, 0.0, 2023-02-28 12:22:04.931
234.0, 26997.01809847571, -4570.149430054358, 16377.257272870216, -3460.251207381631, 15315.16943158739, 7141.784684870802, -187500.02235174447, -187500.02235174447, -0.182, -0.772, -0.622, 192.0, 0.0, 0.0, 0.0, 0.0, 0.0, 0.0, 0.0, 0.0, 0.0, 1.6776157249357748E9, 0.0, 2023-02-28 12:22:04.935
235.0, 26958.014304401197, -4567.757793397641, 16167.48615115716, -3455.44558232374, 15210.093880902992, 7038.541977231739, -187500.02235174447, -187500.02235174447, -0.182, -0.772, -0.622, 192.0, 0.0, 0.0, 0.0, 0.0, 0.0, 0.0, 0.0, 0.0, 0.0, 1.677615724939796E9, 0.0, 2023-02-28 12:22:04.939
236.0, 26923.61496968448, -4569.322415509512, 15954.54108173145, -3455.356175345919, 15101.196181916737, 6970.0785839651335, -187500.02235174447, -187500.02235174447, -0.182, -0.772, -0.622, 192.0, 0.0, 0.0, 0.0, 0.0, 0.0, 0.0, 0.0, 0.0, 0.0, 1.677615724942741E9, 0.0, 2023-02-28 12:22:04.942
237.0, 26960.18242361336, -4570.507057965643, 16130.784586761545, -3460.0053381926227, 15188.613854481442, 7061.899550187534, -187500.02235174447, -187500.02235174447, -0.182, -0.772, -0.622, 192.0, 0.0, 0.0, 0.0, 0.0, 0.0, 0.0, 0.0, 0.0, 0.0, 1.677615724946832E9, 0.0, 2023-02-28 12:22:04.946
238.0, 27001.44374387786, -4569.4788777206995, 16374.91033970241, -3462.3299196159746, 15310.900248396427, 7149.60779543016, -187500.02235174447, -187500.02235174447, -0.182, -0.772, -0.622, 192.0, 0.0, 0.0, 0.0, 0.0, 0.0, 0.0, 0.0, 0.0, 0.0, 1.677615724951818E9, 0.0, 2023-02-28 12:22:04.951
239.0, 26962.43994980335, -4569.389470742878, 16228.282896075594, -3458.060736425011, 15235.708980048774, 7060.692555986948, -187500.02235174447, -187500.02235174447, -0.178, -0.774, -0.628, 192.0, 250.0, 112.0, 231.0, 208.0, 236.0, 96.0, 0.0, 0.0, 0.0, 1.677615724955981E9, 0.0, 2023-02-28 12:22:04.955
240.0, 26915.590693425023, -4571.781107399596, 15975.39525930825, -3456.7866869910586, 15105.666530807797, 6968.2010374308875, -187500.02235174447, -187500.02235174447, -0.178, -0.774, -0.628, 192.0, 0.0, 0.0, 0.0, 0.0, 0.0, 0.0, 0.0, 0.0, 0.0, 1.6776157249597905E9, 0.0, 2023-02-28 12:22:04.959
241.0, 26937.47305124677, -4573.3010260225565, 16084.85175190589, -3460.295910870542, 15157.410819221834, 7042.475884255873, -187500.02235174447, -187500.02235174447, -0.178, -0.774, -0.628, 192.0, 0.0, 0.0, 0.0, 0.0, 0.0, 0.0, 0.0, 0.0, 0.0, 1.6776157249637833E9, 0.0, 2023-02-28 12:22:04.963
242.0, 26994.939386241364, -4568.271883520113, 16359.889967428444, -3460.8100009930135, 15296.617483689486, 7148.624318674126, -187500.02235174447, -187500.02235174447, -0.178, -0.774, -0.628, 192.0, 0.0, 0.0, 0.0, 0.0, 0.0, 0.0, 0.0, 0.0, 0.0, 1.677615724966869E9, 0.0, 2023-02-28 12:22:04.966
243.0, 26985.66341229241, -4565.276749763101, 16279.98248100072, -3456.1384864018546, 15257.54663438161, 7084.474812087395, -187500.02235174447, -187500.02235174447, -0.178, -0.774, -0.628, 192.0, 0.0, 0.0, 0.0, 0.0, 0.0, 0.0, 0.0, 0.0, 0.0, 1.6776157249707873E9, 0.0, 2023-02-28 12:22:04.970
244.0, 26930.61106569899, -4565.969653841216, 16002.463221843627, -3453.053945667022, 15115.009559990116, 6972.693738066404, -187500.02235174447, -187500.02235174447, -0.178, -0.774, -0.628, 192.0, 0.0, 0.0, 0.0, 0.0, 0.0, 0.0, 0.0, 0.0, 0.0, 1.6776157249747894E9, 0.0, 2023-02-28 12:22:04.974
245.0, 26933.38268201145, -4566.841371874973, 16037.443701916183, -3455.937320701757, 15130.812243320019, 7019.788863633736, -187500.02235174447, -187500.02235174447, -0.178, -0.774, -0.628, 192.0, 0.0, 0.0, 0.0, 0.0, 0.0, 0.0, 0.0, 0.0, 0.0, 1.6776157249797704E9, 0.0, 2023-02-28 12:22:04.979
246.0, 26976.298031365637, -4565.56732244102, 16325.691798411823, -3458.641881780849, 15277.730259624752, 7138.789551113791, -187500.02235174447, -187500.02235174447, -0.178, -0.774, -0.628, 192.0, 0.0, 0.0, 0.0, 0.0, 0.0, 0.0, 0.0, 0.0, 0.0, 1.6776157249837751E9, 0.0, 2023-02-28 12:22:04.983
247.0, 26978.24263313325, -4560.024089816105, 16320.215621020274, -3454.931492201268, 15278.132591024947, 7109.553469366249, -187500.02235174447, -187500.02235174447, -0.178, -0.774, -0.628, 192.0, 0.0, 0.0, 0.0, 0.0, 0.0, 0.0, 0.0, 0.0, 0.0, 1.6776157249877994E9, 0.0, 2023-02-28 12:22:04.987
248.0, 26939.127080336464, -4557.5653979260205, 16034.26975420353, -3451.2881578550528, 15135.349647444446, 6990.575133630649, -187500.02235174447, -187500.02235174447, -0.178, -0.774, -0.628, 192.0, 0.0, 0.0, 0.0, 0.0, 0.0, 0.0, 0.0, 0.0, 0.0, 1.67761572499184E9, 0.0, 2023-02-28 12:22:04.991
249.0, 26936.847202402023, -4559.577054926998, 15997.031747940988, -3453.8586084674134, 15115.814222790506, 7003.270924481264, -187500.02235174447, -187500.02235174447, -0.17200000000000001, -0.778, -0.626, 192.0, 250.0, 160.0, 231.0, 176.0, 236.0, 112.0, 0.0, 0.0, 0.0, 1.6776157249958076E9, 0.0, 2023-02-28 12:22:04.995
250.0, 26973.28054586417, -4562.415726472822, 16283.31289092456, -3458.1054399139216, 15258.597166371008, 7127.479568419406, -187500.02235174447, -187500.02235174447, -0.17200000000000001, -0.778, -0.626, 192.0, 0.0, 0.0, 0.0, 0.0, 0.0, 0.0, 0.0, 0.0, 0.0, 1.6776157249988115E9, 0.0, 2023-02-28 12:22:04.998
251.0, 26978.28733662216, -4559.957034582739, 16353.966755147787, -3455.2667683680975, 15295.87987612246, 7130.787626598791, -187500.02235174447, -187500.02235174447, -0.17200000000000001, -0.778, -0.626, 192.0, 0.0, 0.0, 0.0, 0.0, 0.0, 0.0, 0.0, 0.0, 0.0, 1.6776157250028431E9, 0.0, 2023-02-28 12:22:05.002
252.0, 26941.09403384853, -4556.984252570182, 16077.363917513361, -3450.0364601655556, 15157.209653521735, 7007.562459416683, -187500.02235174447, -187500.02235174447, -0.17200000000000001, -0.778, -0.626, 192.0, 0.0, 0.0, 0.0, 0.0, 0.0, 0.0, 0.0, 0.0, 0.0, 1.6776157250070195E9, 0.0, 2023-02-28 12:22:05.007
253.0, 26930.476955232258, -4559.308833993535, 15969.650860983236, -3451.9140066998016, 15101.777327272574, 6989.122270241055, -187500.02235174447, -187500.02235174447, -0.17200000000000001, -0.778, -0.626, 192.0, 0.0, 0.0, 0.0, 0.0, 0.0, 0.0, 0.0, 0.0, 0.0, 1.6776157250119529E9, 0.0, 2023-02-28 12:22:05.011
254.0, 26979.85195873403, -4561.409897972333, 16231.881526932899, -3456.406707335318, 15235.641924815409, 7111.40866415604, -187500.02235174447, -187500.02235174447, -0.17200000000000001, -0.778, -0.626, 192.0, 0.0, 0.0, 0.0, 0.0, 0.0, 0.0, 0.0, 0.0, 0.0, 1.67761572501583E9, 0.0, 2023-02-28 12:22:05.015
255.0, 26999.00740373223, -4561.4769532057, 16372.496351301237, -3455.959672446212, 15311.07906235207, 7141.963498826444, -187500.02235174447, -187500.02235174447, -0.17200000000000001, -0.778, -0.626, 192.0, 0.0, 0.0, 0.0, 0.0, 0.0, 0.0, 0.0, 0.0, 0.0, 1.677615725019873E9, 0.0, 2023-02-28 12:22:05.019
0.0, 26951.733464209257, -4560.024089816105, 16124.101415169409, -3451.422268321785, 15188.524447503622, 7021.599354934616, -187500.02235174447, -187500.02235174447, -0.17200000000000001, -0.778, -0.626, 192.0, 0.0, 0.0, 0.0, 0.0, 0.0, 0.0, 0.0, 0.0, 0.0, 1.677615725023868E9, 0.0, 2023-02-28 12:22:05.023
1.0, 26920.865705116477, -4563.578017184498, 15953.82582590888, -3452.070468910989, 15100.905609238818, 6976.113554968066, -187500.02235174447, -187500.02235174447, -0.17200000000000001, -0.778, -0.626, 192.0, 0.0, 0.0, 0.0, 0.0, 0.0, 0.0, 0.0, 0.0, 0.0, 1.6776157250268595E9, 0.0, 2023-02-28 12:22:05.026
2.0, 26952.71694096529, -4569.724746909707, 16175.599834394436, -3457.7254602581816, 15213.111366404459, 7088.4757743448945, -187500.02235174447, -187500.02235174447, -0.17200000000000001, -0.778, -0.626, 192.0, 0.0, 0.0, 0.0, 0.0, 0.0, 0.0, 0.0, 0.0, 0.0, 1.6776157250308616E9, 0.0, 2023-02-28 12:22:05.030
3.0, 26979.516682567202, -4571.311720766034, 16378.28545311516, -3458.5077713141172, 15313.98478913126, 7153.072315820732, -187500.02235174447, -187500.02235174447, -0.17200000000000001, -0.778, -0.626, 192.0, 0.0, 0.0, 0.0, 0.0, 0.0, 0.0, 0.0, 0.0, 0.0, 1.677615725035915E9, 0.0, 2023-02-28 12:22:05.035
4.0, 26950.437063030848, -4570.998796343661, 16177.05269778403, -3454.2609398676086, 15213.066662915548, 7049.516683759294, -187500.02235174447, -187500.02235174447, -0.17400000000000002, -0.776, -0.62, 192.0, 250.0, 144.0, 231.0, 192.0, 236.0, 160.0, 0.0, 0.0, 0.0, 1.6776157250399723E9, 0.0, 2023-02-28 12:22:05.039
5.0, 26929.71699592078, -4570.842334132473, 15957.893843399746, -3454.506809056617, 15101.79967901703, 6976.694700323904, -187500.02235174447, -187500.02235174447, -0.17400000000000002, -0.776, -0.62, 192.0, 0.0, 0.0, 0.0, 0.0, 0.0, 0.0, 0.0, 0.0, 0.0, 1.6776157250448596E9, 0.0, 2023-02-28 12:22:05.044
6.0, 26958.416635801394, -4572.496363222166, 16124.414339591784, -3459.357137603419, 15182.869456156428, 7073.008367181822, -187500.02235174447, -187500.02235174447, -0.17400000000000002, -0.776, -0.62, 192.0, 0.0, 0.0, 0.0, 0.0, 0.0, 0.0, 0.0, 0.0, 0.0, 1.6776157250488536E9, 0.0, 2023-02-28 12:22:05.048
7.0, 26982.981202957777, -4573.926874867306, 16374.128028646473, -3461.994643449145, 15309.201515817824, 7155.553359455271, -187500.02235174447, -187500.02235174447, -0.17400000000000002, -0.776, -0.62, 192.0, 0.0, 0.0, 0.0, 0.0, 0.0, 0.0, 0.0, 0.0, 0.0, 1.6776157250518641E9, 0.0, 2023-02-28 12:22:05.051
8.0, 26952.605182243013, -4573.792764400574, 16233.870832189421, -3458.5301230585724, 15240.022866728648, 7063.553579277227, -187500.02235174447, -187500.02235174447, -0.17400000000000002, -0.776, -0.62, 192.0, 0.0, 0.0, 0.0, 0.0, 0.0, 0.0, 0.0, 0.0, 0.0, 1.677615725055003E9, 0.0, 2023-02-28 12:22:05.055
9.0, 26914.629568413446, -4573.3010260225565, 15976.490494786562, -3456.7196317576927, 15107.633484319866, 6968.022223475245, -187500.02235174447, -187500.02235174447, -0.17400000000000002, -0.776, -0.62, 192.0, 0.0, 0.0, 0.0, 0.0, 0.0, 0.0, 0.0, 0.0, 0.0, 1.6776157250588768E9, 0.0, 2023-02-28 12:22:05.058
10.0, 26937.048368102118, -4574.865648134429, 16075.218150045652, -3461.25703588212, 15157.008487821638, 7036.530320230761, -187500.02235174447, -187500.02235174447, -0.17400000000000002, -0.776, -0.62, 192.0, 0.0, 0.0, 0.0, 0.0, 0.0, 0.0, 0.0, 0.0, 0.0, 1.6776157250628989E9, 0.0, 2023-02-28 12:22:05.062
11.0, 26980.075476178587, -4575.871476634918, 16355.061990626096, -3464.095707427944, 15297.824477890073, 7143.528120938316, -187500.02235174447, -187500.02235174447, -0.17400000000000002, -0.776, -0.62, 192.0, 0.0, 0.0, 0.0, 0.0, 0.0, 0.0, 0.0, 0.0, 0.0, 1.6776157250678709E9, 0.0, 2023-02-28 12:22:05.067
12.0, 26957.410807300905, -4574.329206267501, 16286.308024681572, -3460.251207381631, 15264.788599585128, 7085.704158032437, -187500.02235174447, -187500.02235174447, -0.17400000000000002, -0.776, -0.62, 192.0, 0.0, 0.0, 0.0, 0.0, 0.0, 0.0, 0.0, 0.0, 0.0, 1.6776157250719352E9, 0.0, 2023-02-28 12:22:05.071
13.0, 26912.52850443465, -4574.105688822948, 16005.614817811826, -3456.8537422244244, 15121.4692141377, 6973.766621800259, -187500.02235174447, -187500.02235174447, -0.17400000000000002, -0.776, -0.62, 192.0, 0.0, 0.0, 0.0, 0.0, 0.0, 0.0, 0.0, 0.0, 0.0, 1.6776157250758843E9, 0.0, 2023-02-28 12:22:05.075
14.0, 26913.26611200167, -4581.370005770923, 16034.359161181352, -3462.3299196159746, 15129.269972952603, 7009.507061184295, -187500.02235174447, -187500.02235174447, -0.166, -0.778, -0.618, 192.0, 250.0, 208.0, 231.0, 176.0, 236.0, 176.0, 0.0, 0.0, 0.0, 1.6776157250789096E9, 0.0, 2023-02-28 12:22:05.078
15.0, 26953.879231676965, -4586.510906995643, 16329.245725780218, -3467.5825795629717, 15273.59518690052, 7128.999487042366, -187500.02235174447, -187500.02235174447, -0.166, -0.778, -0.618, 192.0, 0.0, 0.0, 0.0, 0.0, 0.0, 0.0, 0.0, 0.0, 0.0, 1.677615725082916E9, 0.0, 2023-02-28 12:22:05.082
16.0, 26951.75581595371, -4585.616837217431, 16338.298182284616, -3465.347405117441, 15282.31236723809, 7096.321236648708, -187500.02235174447, -187500.02235174447, -0.166, -0.778, -0.618, 192.0, 0.0, 0.0, 0.0, 0.0, 0.0, 0.0, 0.0, 0.0, 0.0, 1.6776157250869107E9, 0.0, 2023-02-28 12:22:05.086
17.0, 26903.18547525233, -4584.3874912723895, 16050.631231144815, -3461.25703588212, 15139.372961446401, 6973.699566566893, -187500.02235174447, -187500.02235174447, -0.166, -0.778, -0.618, 192.0, 0.0, 0.0, 0.0, 0.0, 0.0, 0.0, 0.0, 0.0, 0.0, 1.6776157250909178E9, 0.0, 2023-02-28 12:22:05.090
18.0, 26903.40899269688, -4584.700415694763, 16000.116288675821, -3462.553437060528, 15116.84240303545, 6985.322473683653, -187500.02235174447, -187500.02235174447, -0.166, -0.778, -0.618, 192.0, 0.0, 0.0, 0.0, 0.0, 0.0, 0.0, 0.0, 0.0, 0.0, 1.6776157250959632E9, 0.0, 2023-02-28 12:22:05.095
19.0, 26950.19119384184, -4584.163973827836, 16283.134076968918, -3466.6438062958487, 15261.63700361693, 7106.871260031612, -187500.02235174447, -187500.02235174447, -0.166, -0.778, -0.618, 192.0, 0.0, 0.0, 0.0, 0.0, 0.0, 0.0, 0.0, 0.0, 0.0, 1.677615725100034E9, 0.0, 2023-02-28 12:22:05.100
20.0, 26963.736350981755, -4581.235895304191, 16367.154284376418, -3464.6768527837817, 15309.02270186218, 7109.285248432786, -187500.02235174447, -187500.02235174447, -0.166, -0.778, -0.618, 192.0, 0.0, 0.0, 0.0, 0.0, 0.0, 0.0, 0.0, 0.0, 0.0, 1.6776157251040416E9, 0.0, 2023-02-28 12:22:05.104
21.0, 26923.32439700656, -4574.440964989778, 16092.004310131588, -3457.7925154915474, 15172.319432773524, 6993.704377854393, -187500.02235174447, -187500.02235174447, -0.166, -0.778, -0.618, 192.0, 0.0, 0.0, 0.0, 0.0, 0.0, 0.0, 0.0, 0.0, 0.0, 1.6776157251069517E9, 0.0, 2023-02-28 12:22:05.106
22.0, 26915.23306551374, -4570.819982388018, 15972.73540171807, -3456.8537422244244, 15111.187411688259, 6975.085374723122, -187500.02235174447, -187500.02235174447, -0.166, -0.778, -0.618, 192.0, 0.0, 0.0, 0.0, 0.0, 0.0, 0.0, 0.0, 0.0, 0.0, 1.6776157251109588E9, 0.0, 2023-02-28 12:22:05.110
23.0, 26957.90254567892, -4572.630473688898, 16229.512242020637, -3460.4076695928184, 15241.83335802953, 7094.130765692087, -187500.02235174447, -187500.02235174447, -0.166, -0.778, -0.618, 192.0, 0.0, 0.0, 0.0, 0.0, 0.0, 0.0, 0.0, 0.0, 0.0, 1.677615725115147E9, 0.0, 2023-02-28 12:22:05.115
24.0, 26971.268888863193, -4573.479839978199, 16380.274758371683, -3459.9159312148013, 15321.60673399052, 7130.877033576612, -187500.02235174447, -187500.02235174447, -0.18, -0.778, -0.616, 192.0, 250.0, 96.0, 231.0, 176.0, 236.0, 192.0, 0.0, 0.0, 0.0, 1.6776157251191826E9, 0.0, 2023-02-28 12:22:05.119
25.0, 26930.588713954534, -4570.507057965643, 16136.752502531113, -3454.6185677788935, 15200.147354620382, 7020.481767711851, -187500.02235174447, -187500.02235174447, -0.18, -0.778, -0.616, 192.0, 0.0, 0.0, 0.0, 0.0, 0.0, 0.0, 0.0, 0.0, 0.0, 1.6776157251239927E9, 0.0, 2023-02-28 12:22:05.123
26.0, 26904.727745619744, -4571.445831232766, 15956.508035243516, -3454.2162363786983, 15108.885182009362, 6969.85506652058, -187500.02235174447, -187500.02235174447, -0.18, -0.778, -0.616, 192.0, 0.0, 0.0, 0.0, 0.0, 0.0, 0.0, 0.0, 0.0, 0.0, 1.6776157251281412E9, 0.0, 2023-02-28 12:22:05.128
27.0, 26947.57603974057, -4573.4127847448335, 16171.844741325946, -3458.619530036394, 15213.983084438216, 7078.752765506836, -187500.02235174447, -187500.02235174447, -0.18, -0.778, -0.616, 192.0, 0.0, 0.0, 0.0, 0.0, 0.0, 0.0, 0.0, 0.0, 0.0, 1.6776157251309836E9, 0.0, 2023-02-28 12:22:05.130
28.0, 26979.695496522847, -4571.267017277124, 16381.258235127716, -3457.904274213824, 15323.998370647238, 7145.338612239196, -187500.02235174447, -187500.02235174447, -0.18, -0.778, -0.616, 192.0, 0.0, 0.0, 0.0, 0.0, 0.0, 0.0, 0.0, 0.0, 0.0, 1.6776157251349876E9, 0.0, 2023-02-28 12:22:05.134
29.0, 26941.630475715458, -4570.4176509878225, 16187.53566593357, -3453.322166600486, 15230.29985789059, 7042.587642978149, -187500.02235174447, -187500.02235174447, -0.18, -0.778, -0.616, 192.0, 0.0, 0.0, 0.0, 0.0, 0.0, 0.0, 0.0, 0.0, 0.0, 1.677615725138991E9, 0.0, 2023-02-28 12:22:05.138
30.0, 26909.62277765546, -4573.90452312285, 15959.905500400722, -3453.478628811673, 15115.411891390311, 6964.937682740412, -187500.02235174447, -187500.02235174447, -0.18, -0.778, -0.616, 192.0, 0.0, 0.0, 0.0, 0.0, 0.0, 0.0, 0.0, 0.0, 0.0, 1.677615725143031E9, 0.0, 2023-02-28 12:22:05.143
31.0, 26934.209696556296, -4576.743194668674, 16116.434766821238, -3457.770163747092, 15191.519581260633, 7055.797523951236, -187500.02235174447, -187500.02235174447, -0.18, -0.778, -0.616, 192.0, 0.0, 0.0, 0.0, 0.0, 0.0, 0.0, 0.0, 0.0, 0.0, 1.6776157251469808E9, 0.0, 2023-02-28 12:22:05.146
32.0, 26954.81800494409, -4579.671273192319, 16370.90937744491, -3460.3406143594525, 15320.422091534389, 7144.578652927716, -187500.02235174447, -187500.02235174447, -0.18, -0.778, -0.616, 192.0, 0.0, 0.0, 0.0, 0.0, 0.0, 0.0, 0.0, 0.0, 0.0, 1.6776157251519644E9, 0.0, 2023-02-28 12:22:05.151
33.0, 26926.61010344149, -4577.592560957975, 16241.805701471056, -3456.004375935123, 15256.585509370032, 7062.056012398722, -187500.02235174447, -187500.02235174447, -0.18, -0.778, -0.616, 192.0, 0.0, 0.0, 0.0, 0.0, 0.0, 0.0, 0.0, 0.0, 0.0, 1.677615725156038E9, 0.0, 2023-02-28 12:22:05.156
34.0, 26890.735553590723, -4578.777203414107, 15979.507980288028, -3454.126829400877, 15121.916249026806, 6962.657804805971, -187500.02235174447, -187500.02235174447, -0.18, -0.776, -0.624, 192.0, 250.0, 96.0, 231.0, 192.0, 236.0, 128.0, 0.0, 0.0, 0.0, 1.6776157251590395E9, 0.0, 2023-02-28 12:22:05.159
35.0, 26903.297233974605, -4585.460375006244, 16068.445571475695, -3459.7594690036144, 15163.959880347238, 7023.096921813121, -187500.02235174447, -187500.02235174447, -0.18, -0.776, -0.624, 192.0, 0.0, 0.0, 0.0, 0.0, 0.0, 0.0, 0.0, 0.0, 0.0, 1.6776157251629891E9, 0.0, 2023-02-28 12:22:05.162
36.0, 26949.14066185244, -4589.751909941663, 16349.988144634743, -3464.54274231705, 15303.926504126372, 7131.189957998987, -187500.02235174447, -187500.02235174447, -0.18, -0.776, -0.624, 192.0, 0.0, 0.0, 0.0, 0.0, 0.0, 0.0, 0.0, 0.0, 0.0, 1.6776157251670222E9, 0.0, 2023-02-28 12:22:05.167
37.0, 26932.890943633432, -4589.215468074735, 16295.494591652703, -3461.6593672823155, 15275.718602623774, 7079.132745162577, -187500.02235174447, -187500.02235174447, -0.18, -0.776, -0.624, 192.0, 0.0, 0.0, 0.0, 0.0, 0.0, 0.0, 0.0, 0.0, 0.0, 1.677615725171038E9, 0.0, 2023-02-28 12:22:05.171
38.0, 26889.014469267666, -4587.76260468514, 16012.432099870695, -3458.9771579476787, 15132.868603809906, 6965.719993796349, -187500.02235174447, -187500.02235174447, -0.18, -0.776, -0.624, 192.0, 0.0, 0.0, 0.0, 0.0, 0.0, 0.0, 0.0, 0.0, 0.0, 1.6776157251750047E9, 0.0, 2023-02-28 12:22:05.175
39.0, 26903.118420018964, -4591.540049498088, 16025.619629099327, -3462.7769545050805, 15136.020199778104, 7000.0746250241555, -187500.02235174447, -187500.02235174447, -0.18, -0.776, -0.624, 192.0, 0.0, 0.0, 0.0, 0.0, 0.0, 0.0, 0.0, 0.0, 0.0, 1.6776157251790273E9, 0.0, 2023-02-28 12:22:05.179
40.0, 26960.5624032691, -4592.85880242095, 16315.857030851488, -3466.1744196622876, 15281.373593970966, 7119.768216582324, -187500.02235174447, -187500.02235174447, -0.18, -0.776, -0.624, 192.0, 0.0, 0.0, 0.0, 0.0, 0.0, 0.0, 0.0, 0.0, 0.0, 1.6776157251840258E9, 0.0, 2023-02-28 12:22:05.184
41.0, 26958.126063123473, -4589.751909941663, 16336.264173539184, -3463.0004719496337, 15294.717585410785, 7097.304713404741, -187500.02235174447, -187500.02235174447, -0.18, -0.776, -0.624, 192.0, 0.0, 0.0, 0.0, 0.0, 0.0, 0.0, 0.0, 0.0, 0.0, 1.6776157251870973E9, 0.0, 2023-02-28 12:22:05.187
42.0, 26902.827847341043, -4589.57309598602, 16050.005382300065, -3459.513599814606, 15150.973516818705, 6975.375947401041, -187500.02235174447, -187500.02235174447, -0.18, -0.776, -0.624, 192.0, 0.0, 0.0, 0.0, 0.0, 0.0, 0.0, 0.0, 0.0, 0.0, 1.677615725191074E9, 0.0, 2023-02-28 12:22:05.191
43.0, 26892.858969313977, -4591.4953460091765, 15990.952073449145, -3461.6593672823155, 15120.32927517048, 6979.153392213988, -187500.02235174447, -187500.02235174447, -0.18, -0.776, -0.624, 192.0, 0.0, 0.0, 0.0, 0.0, 0.0, 0.0, 0.0, 0.0, 0.0, 1.6776157251950817E9, 0.0, 2023-02-28 12:22:05.195
44.0, 26943.038635616143, -4593.305837310057, 16271.98055648572, -3466.2414748956535, 15263.447494917811, 7100.813937284224, -187500.02235174447, -187500.02235174447, -0.184, -0.782, -0.626, 192.0, 250.0, 64.0, 231.0, 144.0, 236.0, 112.0, 0.0, 0.0, 0.0, 1.6776157251990604E9, 0.0, 2023-02-28 12:22:05.199
45.0, 26958.304877079117, -4594.758700699652, 16368.271871599183, -3465.7273847731813, 15312.30840829711, 7111.721588578414, -187500.02235174447, -187500.02235174447, -0.184, -0.782, -0.626, 192.0, 0.0, 0.0, 0.0, 0.0, 0.0, 0.0, 0.0, 0.0, 0.0, 1.6776157252030923E9, 0.0, 2023-02-28 12:22:05.203
46.0, 26913.13200153494, -4592.76939544313, 16100.408566046783, -3462.1734574047873, 15176.722726431219, 6989.14462198551, -187500.02235174447, -187500.02235174447, -0.184, -0.782, -0.626, 192.0, 0.0, 0.0, 0.0, 0.0, 0.0, 0.0, 0.0, 0.0, 0.0, 1.677615725208083E9, 0.0, 2023-02-28 12:22:05.208
47.0, 26902.51492291867, -4590.95890414225, 15971.908387173224, -3462.240512638153, 15111.366225643902, 6964.222426917842, -187500.02235174447, -187500.02235174447, -0.184, -0.782, -0.626, 192.0, 0.0, 0.0, 0.0, 0.0, 0.0, 0.0, 0.0, 0.0, 0.0, 1.6776157252120616E9, 0.0, 2023-02-28 12:22:05.212
48.0, 26961.210603858308, -4591.517697753632, 16222.963180895233, -3466.1744196622876, 15238.502948105688, 7084.474812087395, -187500.02235174447, -187500.02235174447, -0.184, -0.782, -0.626, 192.0, 0.0, 0.0, 0.0, 0.0, 0.0, 0.0, 0.0, 0.0, 0.0, 1.6776157252150447E9, 0.0, 2023-02-28 12:22:05.215
49.0, 26984.411714602917, -4589.416633774833, 16381.57115955009, -3464.743908017148, 15323.93131541387, 7123.83623407319, -187500.02235174447, -187500.02235174447, -0.184, -0.782, -0.626, 192.0, 0.0, 0.0, 0.0, 0.0, 0.0, 0.0, 0.0, 0.0, 0.0, 1.6776157252190485E9, 0.0, 2023-02-28 12:22:05.219
50.0, 26930.074623832064, -4584.052215105559, 16143.838005523445, -3457.97132944719, 15208.19398262429, 7009.417654206473, -187500.02235174447, -187500.02235174447, -0.184, -0.782, -0.626, 192.0, 0.0, 0.0, 0.0, 0.0, 0.0, 0.0, 0.0, 0.0, 0.0, 1.6776157252230709E9, 0.0, 2023-02-28 12:22:05.223
51.0, 26905.241835742218, -4582.152316826859, 15955.993945121045, -3457.1666666467986, 15114.093138467448, 6957.740421025804, -187500.02235174447, -187500.02235174447, -0.184, -0.782, -0.626, 192.0, 0.0, 0.0, 0.0, 0.0, 0.0, 0.0, 0.0, 0.0, 0.0, 1.67761572522708E9, 0.0, 2023-02-28 12:22:05.227
52.0, 26969.23488011776, -4583.806345916551, 16161.317069687495, -3462.4193265937956, 15217.91699146235, 7063.73239323287, -187500.02235174447, -187500.02235174447, -0.184, -0.782, -0.626, 192.0, 0.0, 0.0, 0.0, 0.0, 0.0, 0.0, 0.0, 0.0, 0.0, 1.6776157252310495E9, 0.0, 2023-02-28 12:22:05.231
53.0, 26984.456418091824, -4585.169802328325, 16376.452610069826, -3462.7546027606254, 15328.625181749485, 7133.760408611347, -187500.02235174447, -187500.02235174447, -0.184, -0.782, -0.626, 192.0, 0.0, 0.0, 0.0, 0.0, 0.0, 0.0, 0.0, 0.0, 0.0, 1.677615725235119E9, 0.0, 2023-02-28 12:22:05.235
54.0, 26939.976446625766, -4583.962808127739, 16190.77666887959, -3457.323128857986, 15236.379532382434, 7036.575023719672, -187500.02235174447, -187500.02235174447, -0.182, -0.772, -0.624, 192.0, 250.0, 80.0, 231.0, 224.0, 236.0, 128.0, 0.0, 0.0, 0.0, 1.6776157252401996E9, 0.0, 2023-02-28 12:22:05.240
55.0, 26929.493478476226, -4581.794688915574, 15954.094046842343, -3455.3338236014633, 15118.585839102965, 6955.013508202256, -187500.02235174447, -187500.02235174447, -0.182, -0.772, -0.624, 192.0, 0.0, 0.0, 0.0, 0.0, 0.0, 0.0, 0.0, 0.0, 0.0, 1.6776157252431548E9, 0.0, 2023-02-28 12:22:05.243
56.0, 26971.04537141864, -4582.867572649428, 16099.268627079562, -3459.8488759814354, 15192.77127895013, 7040.48657899935, -187500.02235174447, -187500.02235174447, -0.182, -0.772, -0.624, 192.0, 0.0, 0.0, 0.0, 0.0, 0.0, 0.0, 0.0, 0.0, 0.0, 1.67761572524708E9, 0.0, 2023-02-28 12:22:05.247
57.0, 27003.701270067846, -4580.073604592515, 16357.699496471823, -3459.871227725891, 15324.713626469807, 7136.442617945983, -187500.02235174447, -187500.02235174447, -0.182, -0.772, -0.624, 192.0, 0.0, 0.0, 0.0, 0.0, 0.0, 0.0, 0.0, 0.0, 0.0, 1.6776157252510746E9, 0.0, 2023-02-28 12:22:05.251
58.0, 26974.37578134248, -4576.027938846104, 16237.625925257913, -3454.283291612064, 15267.82843683105, 7056.3116140737075, -187500.02235174447, -187500.02235174447, -0.182, -0.772, -0.624, 192.0, 0.0, 0.0, 0.0, 0.0, 0.0, 0.0, 0.0, 0.0, 0.0, 1.6776157252551403E9, 0.0, 2023-02-28 12:22:05.255
59.0, 26932.19803955532, -4574.329206267501, 15968.779142949481, -3452.182227633265, 15132.846252065452, 6952.3536506120745, -187500.02235174447, -187500.02235174447, -0.182, -0.772, -0.624, 192.0, 0.0, 0.0, 0.0, 0.0, 0.0, 0.0, 0.0, 0.0, 0.0, 1.6776157252591028E9, 0.0, 2023-02-28 12:22:05.259
60.0, 26981.72950526828, -4571.803459144051, 16045.423274686727, -3455.356175345919, 15169.972499605716, 7010.334075729142, -187500.02235174447, -187500.02235174447, -0.182, -0.772, -0.624, 192.0, 0.0, 0.0, 0.0, 0.0, 0.0, 0.0, 0.0, 0.0, 0.0, 1.6776157252631056E9, 0.0, 2023-02-28 12:22:05.263
61.0, 27002.270758422706, -4571.199962043758, 16329.491594969226, -3459.603006792427, 15312.911905397405, 7122.584536383693, -187500.02235174447, -187500.02235174447, -0.182, -0.772, -0.624, 192.0, 0.0, 0.0, 0.0, 0.0, 0.0, 0.0, 0.0, 0.0, 0.0, 1.6776157252680967E9, 0.0, 2023-02-28 12:22:05.268
62.0, 26941.138737337442, -4570.194133543269, 16284.721050825245, -3456.8090387355137, 15293.175315043369, 7074.68474801597, -187500.02235174447, -187500.02235174447, -0.182, -0.772, -0.624, 192.0, 0.0, 0.0, 0.0, 0.0, 0.0, 0.0, 0.0, 0.0, 0.0, 1.6776157252721584E9, 0.0, 2023-02-28 12:22:05.272
63.0, 26920.46337371628, -4572.205790544247, 16000.8762479873, -3453.8139049785027, 15147.240775494669, 6957.963938470357, -187500.02235174447, -187500.02235174447, -0.182, -0.772, -0.624, 192.0, 0.0, 0.0, 0.0, 0.0, 0.0, 0.0, 0.0, 0.0, 0.0, 1.67761572527517E9, 0.0, 2023-02-28 12:22:05.275
64.0, 26974.57694704258, -4574.463316734233, 16005.480707345094, -3457.054907924522, 15144.647973137853, 6985.255418450287, -187500.02235174447, -187500.02235174447, -0.17400000000000002, -0.78, -0.624, 192.0, 250.0, 144.0, 231.0, 160.0, 236.0, 128.0, 0.0, 0.0, 0.0, 1.677615725279094E9, 0.0, 2023-02-28 12:22:05.279
65.0, 27029.383424446994, -4577.212581302236, 16296.165143986362, -3461.0335184375667, 15293.3094255101, 7105.418396642018, -187500.02235174447, -187500.02235174447, -0.17400000000000002, -0.78, -0.624, 192.0, 0.0, 0.0, 0.0, 0.0, 0.0, 0.0, 0.0, 0.0, 0.0, 1.6776157252831068E9, 0.0, 2023-02-28 12:22:05.283
66.0, 27015.123011484506, -4574.262151034135, 16326.295295512116, -3459.4018410923295, 15312.30840829711, 7078.372785851096, -187500.02235174447, -187500.02235174447, -0.17400000000000002, -0.78, -0.624, 192.0, 0.0, 0.0, 0.0, 0.0, 0.0, 0.0, 0.0, 0.0, 0.0, 1.6776157252871685E9, 0.0, 2023-02-28 12:22:05.287
67.0, 26997.39807813145, -4573.882171378395, 16041.22114672913, -3455.9820241906673, 15167.022069337616, 6956.622833803039, -187500.02235174447, -187500.02235174447, -0.17400000000000002, -0.78, -0.624, 192.0, 0.0, 0.0, 0.0, 0.0, 0.0, 0.0, 0.0, 0.0, 0.0, 1.677615725291204E9, 0.0, 2023-02-28 12:22:05.291
68.0, 26972.364124341504, -4580.252418548157, 15971.595462750849, -3458.9101027143124, 15126.56541187351, 6953.314775623653, -187500.02235174447, -187500.02235174447, -0.17400000000000002, -0.78, -0.624, 192.0, 0.0, 0.0, 0.0, 0.0, 0.0, 0.0, 0.0, 0.0, 0.0, 1.6776157252961726E9, 0.0, 2023-02-28 12:22:05.296
69.0, 27039.151136773962, -4581.057081348548, 16249.74057075269, -3463.3357481164635, 15267.157884497392, 7075.914093961012, -187500.02235174447, -187500.02235174447, -0.17400000000000002, -0.78, -0.624, 192.0, 0.0, 0.0, 0.0, 0.0, 0.0, 0.0, 0.0, 0.0, 0.0, 1.6776157252991338E9, 0.0, 2023-02-28 12:22:05.299
70.0, 27099.45614331438, -4584.141622083381, 16356.872481926977, -3463.380451605374, 15322.098472368536, 7088.386367367073, -187500.02235174447, -187500.02235174447, -0.17400000000000002, -0.78, -0.624, 192.0, 0.0, 0.0, 0.0, 0.0, 0.0, 0.0, 0.0, 0.0, 0.0, 1.6776157253031166E9, 0.0, 2023-02-28 12:22:05.303
71.0, 27077.97611689283, -4587.069700607026, 16094.32889155494, -3462.4193265937956, 15188.256226570158, 6947.793894743192, -187500.02235174447, -187500.02235174447, -0.17400000000000002, -0.78, -0.624, 192.0, 0.0, 0.0, 0.0, 0.0, 0.0, 0.0, 0.0, 0.0, 0.0, 1.6776157253072195E9, 0.0, 2023-02-28 12:22:05.307
72.0, 27106.206370139884, -4593.931686154805, 15959.838445167357, -3464.9674254617007, 15113.377882644878, 6920.457711274352, -187500.02235174447, -187500.02235174447, -0.17400000000000002, -0.78, -0.624, 192.0, 0.0, 0.0, 0.0, 0.0, 0.0, 0.0, 0.0, 0.0, 0.0, 1.6776157253111775E9, 0.0, 2023-02-28 12:22:05.311
73.0, 27072.96932613484, -4592.322360554023, 16206.489945231671, -3468.119021429899, 15233.719674792252, 7050.723677959881, -187500.02235174447, -187500.02235174447, -0.17400000000000002, -0.78, -0.624, 192.0, 0.0, 0.0, 0.0, 0.0, 0.0, 0.0, 0.0, 0.0, 0.0, 1.677615725315147E9, 0.0, 2023-02-28 12:22:05.315
74.0, 27055.087930570597, -4589.729558197208, 16375.267967613694, -3464.8780184838797, 15316.532887999165, 7110.089911233176, -187500.02235174447, -187500.02235174447, -0.17, -0.782, -0.622, 192.0, 250.0, 176.0, 231.0, 144.0, 236.0, 144.0, 0.0, 0.0, 0.0, 1.6776157253191378E9, 0.0, 2023-02-28 12:22:05.319
75.0, 27107.5474748072, -4588.9695988857275, 16148.643630581337, -3460.4970765706394, 15201.15318312087, 6991.223334219853, -187500.02235174447, -187500.02235174447, -0.17, -0.782, -0.622, 192.0, 0.0, 0.0, 0.0, 0.0, 0.0, 0.0, 0.0, 0.0, 0.0, 1.6776157253232064E9, 0.0, 2023-02-28 12:22:05.323
76.0, 27093.041192655706, -4589.237819819191, 15952.887052641756, -3461.1005736709326, 15104.995978474139, 6922.491720019784, -187500.02235174447, -187500.02235174447, -0.17, -0.782, -0.622, 192.0, 0.0, 0.0, 0.0, 0.0, 0.0, 0.0, 0.0, 0.0, 0.0, 1.6776157253261764E9, 0.0, 2023-02-28 12:22:05.326
77.0, 27026.92473255691, -4580.185363314791, 16148.978906748165, -3463.44750683874, 15202.784860466107, 7033.892814385035, -187500.02235174447, -187500.02235174447, -0.17, -0.782, -0.622, 192.0, 0.0, 0.0, 0.0, 0.0, 0.0, 0.0, 0.0, 0.0, 0.0, 1.6776157253312829E9, 0.0, 2023-02-28 12:22:05.331
78.0, 27080.926547160932, -4572.943398111272, 16371.423467567382, -3461.0782219264775, 15319.930353156371, 7112.705065334448, -187500.02235174447, -187500.02235174447, -0.17, -0.782, -0.622, 192.0, 0.0, 0.0, 0.0, 0.0, 0.0, 0.0, 0.0, 0.0, 0.0, 1.6776157253351648E9, 0.0, 2023-02-28 12:22:05.335
79.0, 27021.225037720807, -4563.153334039847, 16194.554113692537, -3454.5962160344384, 15239.933459750828, 7006.288409982731, -187500.02235174447, -187500.02235174447, -0.17, -0.782, -0.622, 192.0, 0.0, 0.0, 0.0, 0.0, 0.0, 0.0, 0.0, 0.0, 0.0, 1.6776157253392713E9, 0.0, 2023-02-28 12:22:05.339
80.0, 26981.371877356993, -4556.090182791971, 15951.97063111909, -3450.3717363323854, 15113.333179155969, 6924.212804342843, -187500.02235174447, -187500.02235174447, -0.17, -0.782, -0.622, 192.0, 0.0, 0.0, 0.0, 0.0, 0.0, 0.0, 0.0, 0.0, 0.0, 1.6776157253431733E9, 0.0, 2023-02-28 12:22:05.343
81.0, 27031.216267492327, -4558.3253572375015, 16086.438725762217, -3454.506809056617, 15179.784915421596, 7004.5896774041275, -187500.02235174447, -187500.02235174447, -0.17, -0.782, -0.622, 192.0, 0.0, 0.0, 0.0, 0.0, 0.0, 0.0, 0.0, 0.0, 0.0, 1.6776157253481712E9, 0.0, 2023-02-28 12:22:05.348
82.0, 27028.19878199086, -4560.2699590051125, 16347.887080655943, -3454.775029990081, 15313.582457731065, 7103.429091385495, -187500.02235174447, -187500.02235174447, -0.17, -0.782, -0.622, 192.0, 0.0, 0.0, 0.0, 0.0, 0.0, 0.0, 0.0, 0.0, 0.0, 1.677615725351172E9, 0.0, 2023-02-28 12:22:05.351
83.0, 27084.413419295957, -4561.4993049501545, 16238.40823631385, -3451.086992154955, 15254.551500624599, 7035.435084752451, -187500.02235174447, -187500.02235174447, -0.17, -0.782, -0.622, 192.0, 0.0, 0.0, 0.0, 0.0, 0.0, 0.0, 0.0, 0.0, 0.0, 1.6776157253542705E9, 0.0, 2023-02-28 12:22:05.354
84.0, 27015.570046373614, -4553.296214735057, 15961.9171574017, -3447.197788619732, 15114.428414634278, 6931.633583502005, -187500.02235174447, -187500.02235174447, -0.17, -0.78, -0.624, 192.0, 250.0, 176.0, 231.0, 160.0, 236.0, 128.0, 0.0, 0.0, 0.0, 1.6776157253592668E9, 0.0, 2023-02-28 12:22:05.359
85.0, 26985.6187088035, -4548.624700143898, 16026.714864577636, -3451.131695643866, 15149.766522618118, 6965.47412460734, -187500.02235174447, -187500.02235174447, -0.17, -0.78, -0.624, 192.0, 0.0, 0.0, 0.0, 0.0, 0.0, 0.0, 0.0, 0.0, 0.0, 1.6776157253632684E9, 0.0, 2023-02-28 12:22:05.363
86.0, 27095.343422334605, -4559.040613060071, 16312.638379649923, -3456.004375935123, 15284.88281785045, 7083.334873120174, -187500.02235174447, -187500.02235174447, -0.17, -0.78, -0.624, 192.0, 0.0, 0.0, 0.0, 0.0, 0.0, 0.0, 0.0, 0.0, 0.0, 1.6776157253672678E9, 0.0, 2023-02-28 12:22:05.367
87.0, 27085.620413496545, -4566.148467796858, 16278.395507144394, -3453.9033119563237, 15256.83137855904, 7050.500160515328, -187500.02235174447, -187500.02235174447, -0.17, -0.78, -0.624, 192.0, 0.0, 0.0, 0.0, 0.0, 0.0, 0.0, 0.0, 0.0, 0.0, 1.6776157253703132E9, 0.0, 2023-02-28 12:22:05.370
88.0, 26969.19017662885, -4564.673252662808, 15988.78395423698, -3451.9810619331674, 15100.36916737189, 6927.61026950005, -187500.02235174447, -187500.02235174447, -0.17, -0.78, -0.624, 192.0, 0.0, 0.0, 0.0, 0.0, 0.0, 0.0, 0.0, 0.0, 0.0, 1.67761572537529E9, 0.0, 2023-02-28 12:22:05.375
89.0, 26965.636249260457, -4565.053232318549, 15978.770372721003, -3454.9538439457233, 15087.047527676526, 6955.929929724924, -187500.02235174447, -187500.02235174447, -0.17, -0.78, -0.624, 192.0, 0.0, 0.0, 0.0, 0.0, 0.0, 0.0, 0.0, 0.0, 0.0, 1.6776157253793156E9, 0.0, 2023-02-28 12:22:05.379
90.0, 26882.89009128691, -4562.549836939555, 16267.487855850204, -3457.97132944719, 15230.836299757517, 7079.333910862674, -187500.02235174447, -187500.02235174447, -0.17, -0.78, -0.624, 192.0, 0.0, 0.0, 0.0, 0.0, 0.0, 0.0, 0.0, 0.0, 0.0, 1.6776157253832717E9, 0.0, 2023-02-28 12:22:05.383
91.0, 26802.602625203446, -4558.95120608225, 16310.872591837955, -3455.959672446212, 15253.456265146287, 7058.032698396766, -187500.02235174447, -187500.02235174447, -0.17, -0.78, -0.624, 192.0, 0.0, 0.0, 0.0, 0.0, 0.0, 0.0, 0.0, 0.0, 0.0, 1.6776157253872745E9, 0.0, 2023-02-28 12:22:05.387
92.0, 26790.867959364412, -4561.2087322722355, 16027.631286100304, -3454.775029990081, 15105.063033707505, 6927.967897411335, -187500.02235174447, -187500.02235174447, -0.17, -0.78, -0.624, 192.0, 0.0, 0.0, 0.0, 0.0, 0.0, 0.0, 0.0, 0.0, 0.0, 1.6776157253912983E9, 0.0, 2023-02-28 12:22:05.391
93.0, 26812.124468341408, -4568.003662586649, 15946.20388104962, -3457.7478120026367, 15057.386762784334, 6920.36830429653, -187500.02235174447, -187500.02235174447, -0.17, -0.78, -0.624, 192.0, 0.0, 0.0, 0.0, 0.0, 0.0, 0.0, 0.0, 0.0, 0.0, 1.6776157253952687E9, 0.0, 2023-02-28 12:22:05.395
94.0, 26699.404621053294, -4562.035746817082, 16219.856288415944, -3460.6535387818267, 15190.089069615493, 7047.862654669601, -187500.02235174447, -187500.02235174447, -0.17, -0.78, -0.628, 192.0, 250.0, 176.0, 231.0, 160.0, 236.0, 96.0, 0.0, 0.0, 0.0, 1.6776157253982608E9, 0.0, 2023-02-28 12:22:05.398
95.0, 26680.67385919975, -4557.52069443711, 16335.571269461068, -3459.4241928367846, 15246.370762153956, 7062.883026943568, -187500.02235174447, -187500.02235174447, -0.17, -0.78, -0.628, 192.0, 0.0, 0.0, 0.0, 0.0, 0.0, 0.0, 0.0, 0.0, 0.0, 1.677615725403293E9, 0.0, 2023-02-28 12:22:05.403
96.0, 26527.072671302878, -4552.871531590406, 16071.261891277063, -3454.9538439457233, 15115.52365011259, 6936.0368771597, -187500.02235174447, -187500.02235174447, -0.17, -0.78, -0.628, 192.0, 0.0, 0.0, 0.0, 0.0, 0.0, 0.0, 0.0, 0.0, 0.0, 1.67761572540733E9, 0.0, 2023-02-28 12:22:05.407
97.0, 26470.232185153032, -4553.810304857529, 15924.030950549955, -3457.5242945580835, 15036.331419507434, 6892.942713849869, -187500.02235174447, -187500.02235174447, -0.17, -0.78, -0.628, 192.0, 0.0, 0.0, 0.0, 0.0, 0.0, 0.0, 0.0, 0.0, 0.0, 1.6776157254113789E9, 0.0, 2023-02-28 12:22:05.411
98.0, 26479.105827701787, -4559.979386327193, 16165.228624967174, -3463.44750683874, 15154.527444187099, 7006.780148360747, -187500.02235174447, -187500.02235174447, -0.17, -0.78, -0.628, 192.0, 0.0, 0.0, 0.0, 0.0, 0.0, 0.0, 0.0, 0.0, 0.0, 1.677615725415294E9, 0.0, 2023-02-28 12:22:05.415
99.0, 26548.68680819116, -4569.098898064959, 16348.579984734059, -3466.777916762581, 15243.01800048566, 7055.506951273317, -187500.02235174447, -187500.02235174447, -0.17, -0.78, -0.628, 192.0, 0.0, 0.0, 0.0, 0.0, 0.0, 0.0, 0.0, 0.0, 0.0, 1.6776157254182725E9, 0.0, 2023-02-28 12:22:05.418
100.0, 26383.015678288422, -4560.515828194121, 16124.682560525247, -3459.893579470346, 15129.404083419335, 6942.4294760739185, -187500.02235174447, -187500.02235174447, -0.17, -0.78, -0.628, 192.0, 0.0, 0.0, 0.0, 0.0, 0.0, 0.0, 0.0, 0.0, 0.0, 1.6776157254223225E9, 0.0, 2023-02-28 12:22:05.422
101.0, 26275.548490947305, -4551.776296112096, 15917.794813846926, -3458.4854195696616, 15021.802785611486, 6877.587065409072, -187500.02235174447, -187500.02235174447, -0.17, -0.78, -0.628, 192.0, 0.0, 0.0, 0.0, 0.0, 0.0, 0.0, 0.0, 0.0, 0.0, 1.6776157254263115E9, 0.0, 2023-02-28 12:22:05.426
102.0, 26272.57570893475, -4555.6878513917745, 16107.114089383376, -3463.0228236940893, 15115.32248441249, 6975.33124391213, -187500.02235174447, -187500.02235174447, -0.17, -0.78, -0.628, 192.0, 0.0, 0.0, 0.0, 0.0, 0.0, 0.0, 0.0, 0.0, 0.0, 1.6776157254304414E9, 0.0, 2023-02-28 12:22:05.430
103.0, 26250.358074946176, -4559.1523717823475, 16339.795749163122, -3465.1685911617988, 15234.747855037196, 7047.169750591487, -187500.02235174447, -187500.02235174447, -0.17, -0.78, -0.628, 192.0, 0.0, 0.0, 0.0, 0.0, 0.0, 0.0, 0.0, 0.0, 0.0, 1.6776157254352927E9, 0.0, 2023-02-28 12:22:05.435
104.0, 26220.362033887155, -4556.872493847906, 16172.96232854871, -3460.8100009930135, 15146.23494699418, 6947.346859854086, -187500.02235174447, -187500.02235174447, -0.166, -0.774, -0.62, 192.0, 250.0, 208.0, 231.0, 208.0, 236.0, 160.0, 0.0, 0.0, 0.0, 1.6776157254393675E9, 0.0, 2023-02-28 12:22:05.439
105.0, 26175.099751365156, -4554.3914502133675, 15922.19810750462, -3458.0830881694665, 15014.516116919056, 6867.282911215176, -187500.02235174447, -187500.02235174447, -0.166, -0.774, -0.62, 192.0, 0.0, 0.0, 0.0, 0.0, 0.0, 0.0, 0.0, 0.0, 0.0, 1.6776157254433243E9, 0.0, 2023-02-28 12:22:05.443
106.0, 26112.671329101486, -4553.51973217961, 16046.429103187216, -3460.4970765706394, 15077.033946160549, 6945.379906342019, -187500.02235174447, -187500.02235174447, -0.166, -0.774, -0.62, 192.0, 0.0, 0.0, 0.0, 0.0, 0.0, 0.0, 0.0, 0.0, 0.0, 1.6776157254462996E9, 0.0, 2023-02-28 12:22:05.446
107.0, 26067.29728785721, -4544.780200097585, 16314.47122269526, -3460.027689937078, 15211.77026173714, 7046.365087791096, -187500.02235174447, -187500.02235174447, -0.166, -0.774, -0.62, 192.0, 0.0, 0.0, 0.0, 0.0, 0.0, 0.0, 0.0, 0.0, 0.0, 1.6776157254504151E9, 0.0, 2023-02-28 12:22:05.450
108.0, 25994.94469105538, -4546.925967565295, 16215.654160458347, -3456.8313904799693, 15162.372906490911, 6976.113554968066, -187500.02235174447, -187500.02235174447, -0.166, -0.774, -0.62, 192.0, 0.0, 0.0, 0.0, 0.0, 0.0, 0.0, 0.0, 0.0, 0.0, 1.6776157254544485E9, 0.0, 2023-02-28 12:22:05.454
109.0, 25949.548298066653, -4538.901691305839, 15937.330238500863, -3452.741021244648, 15020.796957110997, 6869.540437405162, -187500.02235174447, -187500.02235174447, -0.166, -0.774, -0.62, 192.0, 0.0, 0.0, 0.0, 0.0, 0.0, 0.0, 0.0, 0.0, 0.0, 1.677615725458442E9, 0.0, 2023-02-28 12:22:05.458
110.0, 25777.23870006069, -4525.915327777306, 15989.409803081728, -3453.679794511771, 15049.563652224977, 6919.98832464079, -187500.02235174447, -187500.02235174447, -0.166, -0.774, -0.62, 192.0, 0.0, 0.0, 0.0, 0.0, 0.0, 0.0, 0.0, 0.0, 0.0, 1.677615725463332E9, 0.0, 2023-02-28 12:22:05.463
111.0, 25809.268749865147, -4529.6257173568865, 16279.244873433696, -3457.2337218801645, 15199.007415653161, 7035.211567307898, -187500.02235174447, -187500.02235174447, -0.166, -0.774, -0.62, 192.0, 0.0, 0.0, 0.0, 0.0, 0.0, 0.0, 0.0, 0.0, 0.0, 1.6776157254673502E9, 0.0, 2023-02-28 12:22:05.467
112.0, 25884.16944553488, -4532.397333669345, 16256.155521411363, -3453.8809602118686, 15186.266921313636, 6991.603313875594, -187500.02235174447, -187500.02235174447, -0.166, -0.774, -0.62, 192.0, 0.0, 0.0, 0.0, 0.0, 0.0, 0.0, 0.0, 0.0, 0.0, 1.6776157254714983E9, 0.0, 2023-02-28 12:22:05.471
113.0, 25798.361098570957, -4533.313755192013, 15966.25339582603, -3449.120038642888, 15038.320724763958, 6874.055489785134, -187500.02235174447, -187500.02235174447, -0.166, -0.774, -0.62, 192.0, 0.0, 0.0, 0.0, 0.0, 0.0, 0.0, 0.0, 0.0, 0.0, 1.6776157254744344E9, 0.0, 2023-02-28 12:22:05.474
114.0, 25640.8036519055, -4521.266164930602, 15943.365209503796, -3449.0753351539774, 15027.703646147687, 6904.029179099701, -187500.02235174447, -187500.02235174447, -0.164, -0.776, -0.622, 192.0, 250.0, 224.0, 231.0, 192.0, 236.0, 144.0, 0.0, 0.0, 0.0, 1.677615725478413E9, 0.0, 2023-02-28 12:22:05.478
115.0, 25679.516873302087, -4515.901746261328, 16235.21193685674, -3453.8139049785027, 15175.806304908552, 7022.96281134639, -187500.02235174447, -187500.02235174447, -0.164, -0.776, -0.622, 192.0, 0.0, 0.0, 0.0, 0.0, 0.0, 0.0, 0.0, 0.0, 0.0, 1.677615725482369E9, 0.0, 2023-02-28 12:22:05.482
116.0, 25674.68889649974, -4514.471234616189, 16290.532504383626, -3452.7857247335587, 15203.276598844124, 7006.534279171739, -187500.02235174447, -187500.02235174447, -0.164, -0.776, -0.622, 192.0, 0.0, 0.0, 0.0, 0.0, 0.0, 0.0, 0.0, 0.0, 0.0, 1.67761572548635E9, 0.0, 2023-02-28 12:22:05.486
117.0, 25637.048558837007, -4518.494548618144, 16009.83929751388, -3449.0306316650667, 15052.961117382183, 6889.880524859492, -187500.02235174447, -187500.02235174447, -0.164, -0.776, -0.622, 192.0, 0.0, 0.0, 0.0, 0.0, 0.0, 0.0, 0.0, 0.0, 0.0, 1.6776157254913507E9, 0.0, 2023-02-28 12:22:05.491
118.0, 25572.317906894437, -4519.99211549665, 15918.778290602959, -3450.4611433102064, 15000.166296978749, 6887.421832969408, -187500.02235174447, -187500.02235174447, -0.164, -0.776, -0.622, 192.0, 0.0, 0.0, 0.0, 0.0, 0.0, 0.0, 0.0, 0.0, 0.0, 1.677615725495448E9, 0.0, 2023-02-28 12:22:05.495
119.0, 25496.366679235303, -4521.512034119611, 16190.866075857411, -3455.512637557106, 15137.316600956512, 7011.384607718541, -187500.02235174447, -187500.02235174447, -0.164, -0.776, -0.622, 192.0, 0.0, 0.0, 0.0, 0.0, 0.0, 0.0, 0.0, 0.0, 0.0, 1.6776157254995525E9, 0.0, 2023-02-28 12:22:05.499
120.0, 25448.645704823222, -4524.708333576719, 16318.874516352955, -3456.4961143131395, 15202.851915699473, 7029.780093405258, -187500.02235174447, -187500.02235174447, -0.164, -0.776, -0.622, 192.0, 0.0, 0.0, 0.0, 0.0, 0.0, 0.0, 0.0, 0.0, 0.0, 1.6776157255023715E9, 0.0, 2023-02-28 12:22:05.502
121.0, 25462.41437940769, -4522.450807386734, 16062.142379539298, -3453.2327596226646, 15076.162228126792, 6894.484984217284, -187500.02235174447, -187500.02235174447, -0.164, -0.776, -0.622, 192.0, 0.0, 0.0, 0.0, 0.0, 0.0, 0.0, 0.0, 0.0, 0.0, 1.6776157255064025E9, 0.0, 2023-02-28 12:22:05.506
122.0, 25458.90515552821, -4528.061095245015, 15908.094156753321, -3455.736155001659, 14991.940855019195, 6849.937957517857, -187500.02235174447, -187500.02235174447, -0.164, -0.776, -0.622, 192.0, 0.0, 0.0, 0.0, 0.0, 0.0, 0.0, 0.0, 0.0, 0.0, 1.677615725510528E9, 0.0, 2023-02-28 12:22:05.510
123.0, 25371.331020752314, -4536.152426737836, 16143.748598545624, -3461.8828847268683, 15111.455632621723, 6968.446906619895, -187500.02235174447, -187500.02235174447, -0.164, -0.776, -0.622, 192.0, 0.0, 0.0, 0.0, 0.0, 0.0, 0.0, 0.0, 0.0, 0.0, 1.6776157255144033E9, 0.0, 2023-02-28 12:22:05.514
124.0, 25297.659671027624, -4532.911423791817, 16335.23599329424, -3462.4193265937956, 15208.037520413105, 7022.6722386684705, -187500.02235174447, -187500.02235174447, -0.168, -0.776, -0.628, 192.0, 250.0, 192.0, 231.0, 192.0, 236.0, 96.0, 0.0, 0.0, 0.0, 1.6776157255194507E9, 0.0, 2023-02-28 12:22:05.519
125.0, 25293.99398493695, -4527.032915000072, 16122.737958757634, -3458.865399225402, 15104.615998818399, 6903.090405832578, -187500.02235174447, -187500.02235174447, -0.168, -0.776, -0.628, 192.0, 0.0, 0.0, 0.0, 0.0, 0.0, 0.0, 0.0, 0.0, 0.0, 1.6776157255234487E9, 0.0, 2023-02-28 12:22:05.523
126.0, 25313.752927035443, -4531.2126912132135, 15912.743319600026, -3460.4300213372735, 14995.830058554418, 6835.252861410721, -187500.02235174447, -187500.02235174447, -0.168, -0.776, -0.628, 192.0, 0.0, 0.0, 0.0, 0.0, 0.0, 0.0, 0.0, 0.0, 0.0, 1.6776157255274024E9, 0.0, 2023-02-28 12:22:05.527
127.0, 25304.834580997776, -4536.733572093674, 16097.569894500959, -3466.9120272293126, 15080.476114806666, 6936.640374259994, -187500.02235174447, -187500.02235174447, -0.168, -0.776, -0.628, 192.0, 0.0, 0.0, 0.0, 0.0, 0.0, 0.0, 0.0, 0.0, 0.0, 1.6776157255304275E9, 0.0, 2023-02-28 12:22:05.530
128.0, 25348.86751757473, -4533.872548803395, 16339.840452652033, -3468.409594107818, 15202.896619188383, 7019.140663044533, -187500.02235174447, -187500.02235174447, -0.168, -0.776, -0.628, 192.0, 0.0, 0.0, 0.0, 0.0, 0.0, 0.0, 0.0, 0.0, 0.0, 1.6776157255344126E9, 0.0, 2023-02-28 12:22:05.534
129.0, 25297.190284394062, -4531.413856913311, 16182.506523431126, -3463.6486725388377, 15129.493490397155, 6927.453807288863, -187500.02235174447, -187500.02235174447, -0.168, -0.776, -0.628, 192.0, 0.0, 0.0, 0.0, 0.0, 0.0, 0.0, 0.0, 0.0, 0.0, 1.6776157255385065E9, 0.0, 2023-02-28 12:22:05.538
130.0, 25133.30729404775, -4515.767635794597, 15927.182546518154, -3456.898445713335, 15001.999140024083, 6848.686259828361, -187500.02235174447, -187500.02235174447, -0.168, -0.776, -0.628, 192.0, 0.0, 0.0, 0.0, 0.0, 0.0, 0.0, 0.0, 0.0, 0.0, 1.677615725542652E9, 0.0, 2023-02-28 12:22:05.542
131.0, 25118.197514795964, -4510.962010736705, 16044.55155665297, -3460.027689937078, 15055.196291827715, 6930.627755001517, -187500.02235174447, -187500.02235174447, -0.168, -0.776, -0.628, 192.0, 0.0, 0.0, 0.0, 0.0, 0.0, 0.0, 0.0, 0.0, 0.0, 1.6776157255475488E9, 0.0, 2023-02-28 12:22:05.547
132.0, 25185.811541773266, -4515.767635794597, 16320.260324509183, -3463.894541727846, 15195.475840029221, 7030.137721316543, -187500.02235174447, -187500.02235174447, -0.168, -0.776, -0.628, 192.0, 0.0, 0.0, 0.0, 0.0, 0.0, 0.0, 0.0, 0.0, 0.0, 1.6776157255514846E9, 0.0, 2023-02-28 12:22:05.551
133.0, 25183.241091160908, -4505.709350789708, 16229.288724576083, -3456.7196317576927, 15158.19313027777, 6970.749136298792, -187500.02235174447, -187500.02235174447, -0.168, -0.776, -0.628, 192.0, 0.0, 0.0, 0.0, 0.0, 0.0, 0.0, 0.0, 0.0, 0.0, 1.6776157255554817E9, 0.0, 2023-02-28 12:22:05.555
134.0, 25136.280076060306, -4501.618981554387, 15950.785988662958, -3452.897483455835, 15017.041864042505, 6860.0185942672015, -187500.02235174447, -187500.02235174447, -0.168, -0.776, -0.628, 192.0, 0.0, 0.0, 0.0, 0.0, 0.0, 0.0, 0.0, 0.0, 0.0, 1.6776157255584683E9, 0.0, 2023-02-28 12:22:05.558
135.0, 25134.827212670712, -4498.377978608368, 15993.16489615022, -3454.35034684543, 15044.31099227798, 6905.772615167215, -187500.02235174447, -187500.02235174447, -0.168, -0.772, -0.62, 192.0, 250.0, 192.0, 231.0, 224.0, 236.0, 160.0, 0.0, 0.0, 0.0, 1.6776157255624328E9, 0.0, 2023-02-28 12:22:05.562
136.0, 25175.79796025729, -4497.528612319066, 16283.715222324756, -3456.406707335318, 15200.862610442951, 7020.235898522842, -187500.02235174447, -187500.02235174447, -0.168, -0.772, -0.62, 192.0, 0.0, 0.0, 0.0, 0.0, 0.0, 0.0, 0.0, 0.0, 0.0, 1.6776157255664525E9, 0.0, 2023-02-28 12:22:05.566
137.0, 25197.300338423294, -4492.186545394247, 16271.645280318891, -3451.802247977525, 15197.129869118915, 6981.545028870706, -187500.02235174447, -187500.02235174447, -0.168, -0.772, -0.62, 192.0, 0.0, 0.0, 0.0, 0.0, 0.0, 0.0, 0.0, 0.0, 0.0, 1.677615725570578E9, 0.0, 2023-02-28 12:22:05.570
