%OpenBCI Raw EEG Data
%Number of channels = 8
%Sample Rate = 250 Hz
%Board = OpenBCI_GUI$BoardCytonSerial
Sample Index, EXG Channel 0, EXG Channel 1, EXG Channel 2, EXG Channel 3, EXG Channel 4, EXG Channel 5, EXG Channel 6, EXG Channel 7, Accel Channel 0, Accel Channel 1, Accel Channel 2, Other, Other, Other, Other, Other, Other, Other, Analog Channel 0, Analog Channel 1, Analog Channel 2, Timestamp, Other, Timestamp (Formatted)
84.0, 27400.154161471626, -4116.163148422617, 14508.427918961994, -3065.787621234372, 15084.387670086346, 7179.022691133344, -187500.02235174447, -187500.02235174447, 0.0, 0.0, 0.0, 192.0, 0.0, 0.0, 0.0, 0.0, 0.0, 0.0, 0.0, 0.0, 0.0, 1.677614884400175E9, 0.0, 2023-02-28 12:08:04.400
85.0, 27532.320026435857, -4117.057218200829, 15230.433968357322, -3074.080118427291, 15459.807569957682, 7511.683703861679, -187500.02235174447, -187500.02235174447, 0.0, 0.0, 0.0, 192.0, 0.0, 0.0, 0.0, 0.0, 0.0, 0.0, 0.0, 0.0, 0.0, 1.6776148844002433E9, 0.0, 2023-02-28 12:08:04.400
86.0, 27552.458948190088, -4118.688895546066, 15534.775320860783, -3071.1967433925565, 15623.42233937053, 7561.282224808005, -187500.02235174447, -187500.02235174447, -0.196, -0.762, -0.618, 192.0, 249.0, 224.0, 232.0, 48.0, 236.0, 176.0, 0.0, 0.0, 0.0, 1.6776148844002614E9, 0.0, 2023-02-28 12:08:04.400
87.0, 27421.745946615454, -4118.465378101513, 14839.993696212017, -3061.406679321132, 15261.97227978376, 7234.097389471221, -187500.02235174447, -187500.02235174447, -0.196, -0.762, -0.618, 192.0, 0.0, 0.0, 0.0, 0.0, 0.0, 0.0, 0.0, 0.0, 0.0, 1.6776148844002814E9, 0.0, 2023-02-28 12:08:04.400
0.0, 0.0, 0.0, 0.0, 0.0, 0.0, 0.0, 0.0, 0.0, -0.196, -0.762, -0.618, 192.0, 0.0, 0.0, 0.0, 0.0, 0.0, 0.0, 0.0, 0.0, 0.0, 1.6776148844603732E9, 0.0, 2023-02-28 12:08:04.460
1.0, 26834.20799186325, -4215.427245548635, 15338.683466754374, -3117.8224823263267, 15244.895547019905, 7712.000037670141, -187500.02235174447, -187500.02235174447, -0.198, -0.756, -0.624, 192.0, 249.0, 208.0, 232.0, 96.0, 236.0, 128.0, 0.0, 0.0, 0.0, 1.6776148844784033E9, 0.0, 2023-02-28 12:08:04.478
2.0, 26850.189489148797, -4215.2931350819035, 15550.063914068212, -3113.9332787911035, 15363.046868210658, 7704.378092810881, -187500.02235174447, -187500.02235174447, -0.198, -0.756, -0.624, 192.0, 0.0, 0.0, 0.0, 0.0, 0.0, 0.0, 0.0, 0.0, 0.0, 1.67761488448136E9, 0.0, 2023-02-28 12:08:04.481
3.0, 26697.996461152612, -4216.075446137839, 14707.336092869771, -3105.6407815981847, 14927.523127499, 7321.895041691666, -187500.02235174447, -187500.02235174447, -0.198, -0.756, -0.624, 192.0, 0.0, 0.0, 0.0, 0.0, 0.0, 0.0, 0.0, 0.0, 0.0, 1.6776148844845505E9, 0.0, 2023-02-28 12:08:04.484
4.0, 26651.46012919666, -4217.103626382784, 14388.89078961501, -3108.9935432664806, 14758.745105116977, 7280.432555727071, -187500.02235174447, -187500.02235174447, -0.198, -0.756, -0.624, 192.0, 0.0, 0.0, 0.0, 0.0, 0.0, 0.0, 0.0, 0.0, 0.0, 1.6776148844884236E9, 0.0, 2023-02-28 12:08:04.488
5.0, 26792.276119265094, -4219.40585606168, 15184.456430012755, -3119.7894358383937, 15168.832560638495, 7655.427772453759, -187500.02235174447, -187500.02235174447, -0.198, -0.756, -0.624, 192.0, 0.0, 0.0, 0.0, 0.0, 0.0, 0.0, 0.0, 0.0, 0.0, 1.6776148844923544E9, 0.0, 2023-02-28 12:08:04.492
6.0, 26856.537384574105, -4219.674076995144, 15609.586609552696, -3117.5766131373184, 15397.71442386084, 7748.29927066556, -187500.02235174447, -187500.02235174447, -0.198, -0.756, -0.624, 192.0, 0.0, 0.0, 0.0, 0.0, 0.0, 0.0, 0.0, 0.0, 0.0, 1.6776148844963355E9, 0.0, 2023-02-28 12:08:04.496
7.0, 26722.449269586716, -4221.55162352939, 14863.485379634545, -3108.904136288659, 15011.185706995215, 7380.41190867566, -187500.02235174447, -187500.02235174447, -0.198, -0.756, -0.624, 192.0, 0.0, 0.0, 0.0, 0.0, 0.0, 0.0, 0.0, 0.0, 0.0, 1.6776148845003955E9, 0.0, 2023-02-28 12:08:04.500
8.0, 26656.869251354845, -4221.618678762756, 14349.283498440207, -3110.04407525588, 14737.689761840078, 7241.987555263943, -187500.02235174447, -187500.02235174447, -0.188, -0.764, -0.62, 192.0, 250.0, 32.0, 232.0, 32.0, 236.0, 160.0, 0.0, 0.0, 0.0, 1.677614884504387E9, 0.0, 2023-02-28 12:08:04.504
9.0, 26768.091531764454, -4218.735303728021, 15019.232334999126, -3118.984773038003, 15085.371146842379, 7586.763213487055, -187500.02235174447, -187500.02235174447, -0.188, -0.764, -0.62, 192.0, 0.0, 0.0, 0.0, 0.0, 0.0, 0.0, 0.0, 0.0, 0.0, 1.6776148845083556E9, 0.0, 2023-02-28 12:08:04.508
10.0, 26848.043721681086, -4216.343667071303, 15631.71483656345, -3119.7670840939386, 15411.326636234122, 7773.377927944413, -187500.02235174447, -187500.02235174447, -0.188, -0.764, -0.62, 192.0, 0.0, 0.0, 0.0, 0.0, 0.0, 0.0, 0.0, 0.0, 0.0, 1.677614884511372E9, 0.0, 2023-02-28 12:08:04.511
11.0, 26743.884592519356, -4215.181376359627, 15028.932992092728, -3109.7087990890504, 15102.291417395047, 7449.791723464933, -187500.02235174447, -187500.02235174447, -0.188, -0.764, -0.62, 192.0, 0.0, 0.0, 0.0, 0.0, 0.0, 0.0, 0.0, 0.0, 0.0, 1.6776148845154068E9, 0.0, 2023-02-28 12:08:04.515
12.0, 26652.197736763686, -4212.767387958454, 14350.468140896339, -3106.4677961430307, 14741.802482819854, 7228.62121207967, -187500.02235174447, -187500.02235174447, -0.188, -0.764, -0.62, 192.0, 0.0, 0.0, 0.0, 0.0, 0.0, 0.0, 0.0, 0.0, 0.0, 1.6776148845194204E9, 0.0, 2023-02-28 12:08:04.519
13.0, 26758.860261304413, -4210.621620490744, 14852.197748684615, -3115.0285142694133, 14994.913637031752, 7519.886794076776, -187500.02235174447, -187500.02235174447, -0.188, -0.764, -0.62, 192.0, 0.0, 0.0, 0.0, 0.0, 0.0, 0.0, 0.0, 0.0, 0.0, 1.6776148845244136E9, 0.0, 2023-02-28 12:08:04.524
14.0, 26862.617059065946, -4212.320353069348, 15610.055996186256, -3118.4930346599863, 15396.418022682432, 7788.465355451746, -187500.02235174447, -187500.02235174447, -0.188, -0.764, -0.62, 192.0, 0.0, 0.0, 0.0, 0.0, 0.0, 0.0, 0.0, 0.0, 0.0, 1.6776148845284796E9, 0.0, 2023-02-28 12:08:04.528
15.0, 26763.82234857349, -4213.393236803203, 15194.849991184474, -3110.178185722612, 15188.412688781345, 7525.519433679514, -187500.02235174447, -187500.02235174447, -0.188, -0.764, -0.62, 192.0, 0.0, 0.0, 0.0, 0.0, 0.0, 0.0, 0.0, 0.0, 0.0, 1.677614884531384E9, 0.0, 2023-02-28 12:08:04.531
16.0, 26633.75754758806, -4213.661457736666, 14396.199810051896, -3106.3783891652097, 14771.686765156599, 7230.454055125005, -187500.02235174447, -187500.02235174447, -0.188, -0.764, -0.62, 192.0, 0.0, 0.0, 0.0, 0.0, 0.0, 0.0, 0.0, 0.0, 0.0, 1.6776148845354133E9, 0.0, 2023-02-28 12:08:04.535
17.0, 26715.98961543913, -4216.656591493677, 14694.461488063514, -3115.363790436243, 14919.923534384196, 7445.9472234186205, -187500.02235174447, -187500.02235174447, -0.188, -0.764, -0.62, 192.0, 0.0, 0.0, 0.0, 0.0, 0.0, 0.0, 0.0, 0.0, 0.0, 1.6776148845394096E9, 0.0, 2023-02-28 12:08:04.539
18.0, 26845.383864090905, -4217.416550805157, 15544.565384932208, -3121.3764096947207, 15365.237339167279, 7775.68015762331, -187500.02235174447, -187500.02235174447, -0.184, -0.762, -0.62, 192.0, 250.0, 64.0, 232.0, 48.0, 236.0, 160.0, 0.0, 0.0, 0.0, 1.6776148845434146E9, 0.0, 2023-02-28 12:08:04.543
19.0, 26784.743581383656, -4215.337838570814, 15347.624164536497, -3112.748636334972, 15272.142323510925, 7598.140251414807, -187500.02235174447, -187500.02235174447, -0.184, -0.762, -0.62, 192.0, 0.0, 0.0, 0.0, 0.0, 0.0, 0.0, 0.0, 0.0, 0.0, 1.6776148845484295E9, 0.0, 2023-02-28 12:08:04.548
20.0, 26652.242440252598, -4213.683809481122, 14479.77298257029, -3105.909002531648, 14819.608905268778, 7250.123590245676, -187500.02235174447, -187500.02235174447, -0.184, -0.762, -0.62, 192.0, 0.0, 0.0, 0.0, 0.0, 0.0, 0.0, 0.0, 0.0, 0.0, 1.6776148845524888E9, 0.0, 2023-02-28 12:08:04.552
21.0, 26703.651452499802, -4214.130844370227, 14557.668811997035, -3112.8603950572488, 14852.041286473428, 7378.042623763397, -187500.02235174447, -187500.02235174447, -0.184, -0.762, -0.62, 192.0, 0.0, 0.0, 0.0, 0.0, 0.0, 0.0, 0.0, 0.0, 0.0, 1.6776148845566006E9, 0.0, 2023-02-28 12:08:04.556
22.0, 26869.7919690361, -4214.689637981611, 15443.222575571845, -3120.392932938687, 15309.916771640394, 7747.874587520909, -187500.02235174447, -187500.02235174447, -0.184, -0.762, -0.62, 192.0, 0.0, 0.0, 0.0, 0.0, 0.0, 0.0, 0.0, 0.0, 0.0, 1.6776148845594923E9, 0.0, 2023-02-28 12:08:04.559
23.0, 26843.528669301115, -4211.247469335493, 15475.431439331942, -3113.016857268436, 15335.263649852712, 7666.044851070029, -187500.02235174447, -187500.02235174447, -0.184, -0.762, -0.62, 192.0, 0.0, 0.0, 0.0, 0.0, 0.0, 0.0, 0.0, 0.0, 0.0, 1.6776148845634944E9, 0.0, 2023-02-28 12:08:04.563
24.0, 26681.27735630004, -4209.861661179264, 14597.36551014966, -3105.1937467090784, 14879.958615298106, 7286.869858130201, -187500.02235174447, -187500.02235174447, -0.184, -0.762, -0.62, 192.0, 0.0, 0.0, 0.0, 0.0, 0.0, 0.0, 0.0, 0.0, 0.0, 1.6776148845675175E9, 0.0, 2023-02-28 12:08:04.567
25.0, 26670.70498117268, -4209.280515823426, 14450.536900822748, -3110.133482233701, 14797.659492213666, 7318.385817812183, -187500.02235174447, -187500.02235174447, -0.184, -0.762, -0.62, 192.0, 0.0, 0.0, 0.0, 0.0, 0.0, 0.0, 0.0, 0.0, 0.0, 1.6776148845714602E9, 0.0, 2023-02-28 12:08:04.571
26.0, 26824.06029988054, -4209.97341990154, 15307.122803583481, -3118.5824416378073, 15241.63219232943, 7701.651179987333, -187500.02235174447, -187500.02235174447, -0.184, -0.762, -0.62, 192.0, 0.0, 0.0, 0.0, 0.0, 0.0, 0.0, 0.0, 0.0, 0.0, 1.677614884575458E9, 0.0, 2023-02-28 12:08:04.575
27.0, 26833.35862557395, -4212.722684469543, 15567.78884742127, -3115.4755491585197, 15382.559941120142, 7719.040837173562, -187500.02235174447, -187500.02235174447, -0.184, -0.762, -0.62, 192.0, 0.0, 0.0, 0.0, 0.0, 0.0, 0.0, 0.0, 0.0, 0.0, 1.6776148845804586E9, 0.0, 2023-02-28 12:08:04.580
28.0, 26679.064533598965, -4218.623545005745, 14742.026000264408, -3108.881784544204, 14953.205281878149, 7336.200158143063, -187500.02235174447, -187500.02235174447, -0.182, -0.766, -0.626, 192.0, 250.0, 80.0, 232.0, 16.0, 236.0, 112.0, 0.0, 0.0, 0.0, 1.6776148845844843E9, 0.0, 2023-02-28 12:08:04.584
29.0, 26644.329922715417, -4220.50109153999, 14378.988966821309, -3112.435711912598, 14753.470093425525, 7269.882532344167, -187500.02235174447, -187500.02235174447, -0.182, -0.766, -0.626, 192.0, 0.0, 0.0, 0.0, 0.0, 0.0, 0.0, 0.0, 0.0, 0.0, 1.6776148845874507E9, 0.0, 2023-02-28 12:08:04.587
30.0, 26788.9233575968, -4220.054056650884, 15150.593537162966, -3121.845796328282, 15146.905499327839, 7640.317993201971, -187500.02235174447, -187500.02235174447, -0.182, -0.766, -0.626, 192.0, 0.0, 0.0, 0.0, 0.0, 0.0, 0.0, 0.0, 0.0, 0.0, 1.677614884591483E9, 0.0, 2023-02-28 12:08:04.591
31.0, 26848.60251529247, -4219.182338617127, 15621.053054458269, -3120.61645038324, 15402.341234963089, 7755.4071254023465, -187500.02235174447, -187500.02235174447, -0.182, -0.766, -0.626, 192.0, 0.0, 0.0, 0.0, 0.0, 0.0, 0.0, 0.0, 0.0, 0.0, 1.6776148845955052E9, 0.0, 2023-02-28 12:08:04.595
32.0, 26723.030414942554, -4218.154158372183, 14899.985778330063, -3109.9546682780588, 15035.996143340606, 7393.912362326666, -187500.02235174447, -187500.02235174447, -0.182, -0.766, -0.626, 192.0, 0.0, 0.0, 0.0, 0.0, 0.0, 0.0, 0.0, 0.0, 0.0, 1.6776148845995092E9, 0.0, 2023-02-28 12:08:04.599
33.0, 26648.956733817668, -4218.9364694281185, 14346.377771661017, -3110.401703167165, 14740.103750241251, 7234.767941804879, -187500.02235174447, -187500.02235174447, -0.182, -0.766, -0.626, 192.0, 0.0, 0.0, 0.0, 0.0, 0.0, 0.0, 0.0, 0.0, 0.0, 1.6776148846036031E9, 0.0, 2023-02-28 12:08:04.603
34.0, 26765.34226719645, -4218.467082794557, 14982.240197925592, -3120.4823399165084, 15065.83572218844, 7568.345376055882, -187500.02235174447, -187500.02235174447, -0.182, -0.766, -0.626, 192.0, 0.0, 0.0, 0.0, 0.0, 0.0, 0.0, 0.0, 0.0, 0.0, 1.677614884608524E9, 0.0, 2023-02-28 12:08:04.608
35.0, 26855.084521184508, -4215.270783337448, 15631.670133074538, -3120.4823399165084, 15407.951522821371, 7776.864800079442, -187500.02235174447, -187500.02235174447, -0.182, -0.766, -0.626, 192.0, 0.0, 0.0, 0.0, 0.0, 0.0, 0.0, 0.0, 0.0, 0.0, 1.677614884612494E9, 0.0, 2023-02-28 12:08:04.612
36.0, 26748.28788617705, -4212.320353069348, 15068.495579778622, -3110.401703167165, 15120.709254826219, 7461.19111313714, -187500.02235174447, -187500.02235174447, -0.182, -0.766, -0.626, 192.0, 0.0, 0.0, 0.0, 0.0, 0.0, 0.0, 0.0, 0.0, 0.0, 1.6776148846154678E9, 0.0, 2023-02-28 12:08:04.615
37.0, 26639.12196625733, -4214.108492625773, 14358.425361922427, -3106.601906609763, 14749.513834656935, 7219.769921275369, -187500.02235174447, -187500.02235174447, -0.182, -0.766, -0.626, 192.0, 0.0, 0.0, 0.0, 0.0, 0.0, 0.0, 0.0, 0.0, 0.0, 1.6776148846194947E9, 0.0, 2023-02-28 12:08:04.619
38.0, 26724.81855449898, -4217.125978127239, 14815.943219178107, -3115.9672875365363, 14980.072078713427, 7495.299875175939, -187500.02235174447, -187500.02235174447, -0.18, -0.764, -0.628, 192.0, 250.0, 96.0, 232.0, 32.0, 236.0, 96.0, 0.0, 0.0, 0.0, 1.677614884623558E9, 0.0, 2023-02-28 12:08:04.623
39.0, 26848.401349592372, -4219.338800828315, 15601.763498993338, -3120.5493951498743, 15394.831048826105, 7779.256436736159, -187500.02235174447, -187500.02235174447, -0.18, -0.764, -0.628, 192.0, 0.0, 0.0, 0.0, 0.0, 0.0, 0.0, 0.0, 0.0, 0.0, 1.6776148846274605E9, 0.0, 2023-02-28 12:08:04.627
40.0, 26773.880633578377, -4220.903422940186, 15232.356218380479, -3112.502767145964, 15207.255209357168, 7537.477616963103, -187500.02235174447, -187500.02235174447, -0.18, -0.764, -0.628, 192.0, 0.0, 0.0, 0.0, 0.0, 0.0, 0.0, 0.0, 0.0, 0.0, 1.6776148846315875E9, 0.0, 2023-02-28 12:08:04.631
41.0, 26647.70503612817, -4221.1045886402835, 14412.76245269328, -3108.5465083773743, 14776.492390214491, 7233.158616204098, -187500.02235174447, -187500.02235174447, -0.18, -0.764, -0.628, 192.0, 0.0, 0.0, 0.0, 0.0, 0.0, 0.0, 0.0, 0.0, 0.0, 1.6776148846366343E9, 0.0, 2023-02-28 12:08:04.636
42.0, 26710.938121192234, -4222.199824118594, 14661.917348136587, -3116.6378398701954, 14900.812792874909, 7429.518691243969, -187500.02235174447, -187500.02235174447, -0.18, -0.764, -0.628, 192.0, 0.0, 0.0, 0.0, 0.0, 0.0, 0.0, 0.0, 0.0, 0.0, 1.677614884640565E9, 0.0, 2023-02-28 12:08:04.640
43.0, 26840.55588728856, -4222.26687935196, 15527.354541701621, -3122.941031806592, 15352.18392040538, 7769.756945342654, -187500.02235174447, -187500.02235174447, -0.18, -0.764, -0.628, 192.0, 0.0, 0.0, 0.0, 0.0, 0.0, 0.0, 0.0, 0.0, 0.0, 1.6776148846435983E9, 0.0, 2023-02-28 12:08:04.643
44.0, 26797.372317000907, -4220.1658153731605, 15379.765973063228, -3114.693238102584, 15282.357070727001, 7612.467719610659, -187500.02235174447, -187500.02235174447, -0.18, -0.764, -0.628, 192.0, 0.0, 0.0, 0.0, 0.0, 0.0, 0.0, 0.0, 0.0, 0.0, 1.6776148846475692E9, 0.0, 2023-02-28 12:08:04.647
45.0, 26671.308478272975, -4220.031704906429, 14503.957570070932, -3108.144176977179, 14827.45436757259, 7257.209093238008, -187500.02235174447, -187500.02235174447, -0.18, -0.764, -0.628, 192.0, 0.0, 0.0, 0.0, 0.0, 0.0, 0.0, 0.0, 0.0, 0.0, 1.677614884651632E9, 0.0, 2023-02-28 12:08:04.651
46.0, 26691.872083171857, -4220.210518862071, 14531.807843662244, -3114.402665424665, 14836.618582799267, 7366.039736990898, -187500.02235174447, -187500.02235174447, -0.18, -0.764, -0.628, 192.0, 0.0, 0.0, 0.0, 0.0, 0.0, 0.0, 0.0, 0.0, 0.0, 1.6776148846555705E9, 0.0, 2023-02-28 12:08:04.655
47.0, 26818.852343422455, -4219.897594439697, 15415.774633380728, -3122.6951626175837, 15297.176277300869, 7741.973726984707, -187500.02235174447, -187500.02235174447, -0.18, -0.764, -0.628, 192.0, 0.0, 0.0, 0.0, 0.0, 0.0, 0.0, 0.0, 0.0, 0.0, 1.6776148846595793E9, 0.0, 2023-02-28 12:08:04.659
48.0, 26811.230398563195, -4220.366981073258, 15499.727785554862, -3118.649496871173, 15345.545452302153, 7677.623054697879, -187500.02235174447, -187500.02235174447, -0.184, -0.768, -0.63, 192.0, 250.0, 64.0, 232.0, 0.0, 236.0, 80.0, 0.0, 0.0, 0.0, 1.6776148846645555E9, 0.0, 2023-02-28 12:08:04.664
49.0, 26667.08399857092, -4221.618678762756, 14629.261449487383, -3110.267592700433, 14891.313301481403, 7296.145832079153, -187500.02235174447, -187500.02235174447, -0.184, -0.768, -0.63, 192.0, 0.0, 0.0, 0.0, 0.0, 0.0, 0.0, 0.0, 0.0, 0.0, 1.677614884668584E9, 0.0, 2023-02-28 12:08:04.668
50.0, 26652.66712339725, -4223.07154215235, 14431.895545947022, -3114.9167555471367, 14783.466134484546, 7306.606448484236, -187500.02235174447, -187500.02235174447, -0.184, -0.768, -0.63, 192.0, 0.0, 0.0, 0.0, 0.0, 0.0, 0.0, 0.0, 0.0, 0.0, 1.6776148846716087E9, 0.0, 2023-02-28 12:08:04.671
51.0, 26804.681337437793, -4221.037533406918, 15277.819666602572, -3123.52217716243, 15221.180346152825, 7690.207086826216, -187500.02235174447, -187500.02235174447, -0.184, -0.768, -0.63, 192.0, 0.0, 0.0, 0.0, 0.0, 0.0, 0.0, 0.0, 0.0, 0.0, 1.677614884675678E9, 0.0, 2023-02-28 12:08:04.675
52.0, 26841.271143111127, -4218.087103138817, 15585.044394140768, -3118.940069549092, 15389.556037134653, 7727.713314022221, -187500.02235174447, -187500.02235174447, -0.184, -0.768, -0.63, 192.0, 0.0, 0.0, 0.0, 0.0, 0.0, 0.0, 0.0, 0.0, 0.0, 1.6776148846797457E9, 0.0, 2023-02-28 12:08:04.679
53.0, 26712.48039155965, -4220.255222350982, 14775.195989036083, -3110.04407525588, 14971.5337123315, 7347.666603048636, -187500.02235174447, -187500.02235174447, -0.184, -0.768, -0.63, 192.0, 0.0, 0.0, 0.0, 0.0, 0.0, 0.0, 0.0, 0.0, 0.0, 1.6776148846837401E9, 0.0, 2023-02-28 12:08:04.683
54.0, 26674.169501563254, -4224.725571242043, 14367.187245748908, -3113.173319479623, 14748.865634067732, 7263.6910991300465, -187500.02235174447, -187500.02235174447, -0.184, -0.768, -0.63, 192.0, 0.0, 0.0, 0.0, 0.0, 0.0, 0.0, 0.0, 0.0, 0.0, 1.6776148846876357E9, 0.0, 2023-02-28 12:08:04.687
55.0, 26788.744543641158, -4225.351420086792, 15114.160193700814, -3122.8069213398603, 15134.500281155144, 7630.662039597278, -187500.02235174447, -187500.02235174447, -0.184, -0.768, -0.63, 192.0, 0.0, 0.0, 0.0, 0.0, 0.0, 0.0, 0.0, 0.0, 0.0, 1.6776148846925702E9, 0.0, 2023-02-28 12:08:04.692
56.0, 26846.657913524858, -4223.719742741554, 15627.535060350307, -3121.890499817193, 15410.991360067292, 7767.29825345257, -187500.02235174447, -187500.02235174447, -0.184, -0.768, -0.63, 192.0, 0.0, 0.0, 0.0, 0.0, 0.0, 0.0, 0.0, 0.0, 0.0, 1.677614884695574E9, 0.0, 2023-02-28 12:08:04.695
57.0, 26737.447290116226, -4221.55162352939, 14935.279182824992, -3112.011028767947, 15055.196291827715, 7412.531365457937, -187500.02235174447, -187500.02235174447, -0.184, -0.768, -0.63, 192.0, 0.0, 0.0, 0.0, 0.0, 0.0, 0.0, 0.0, 0.0, 0.0, 1.67761488469964E9, 0.0, 2023-02-28 12:08:04.699
58.0, 26634.763376088547, -4223.429170063636, 14342.846196037079, -3112.6145258682404, 14740.036695007884, 7232.711581314991, -187500.02235174447, -187500.02235174447, -0.188, -0.768, -0.63, 192.0, 250.0, 32.0, 232.0, 0.0, 236.0, 80.0, 0.0, 0.0, 0.0, 1.6776148847035873E9, 0.0, 2023-02-28 12:08:04.703
59.0, 26742.11880470739, -4225.530234042434, 14945.359819574336, -3122.583403895307, 15045.02624810055, 7556.767172428033, -187500.02235174447, -187500.02235174447, -0.188, -0.768, -0.63, 192.0, 0.0, 0.0, 0.0, 0.0, 0.0, 0.0, 0.0, 0.0, 0.0, 1.6776148847075937E9, 0.0, 2023-02-28 12:08:04.707
60.0, 26844.02040767913, -4222.110417140772, 15631.71483656345, -3122.8963283176818, 15408.689130388395, 7782.8774193379195, -187500.02235174447, -187500.02235174447, -0.188, -0.768, -0.63, 192.0, 0.0, 0.0, 0.0, 0.0, 0.0, 0.0, 0.0, 0.0, 0.0, 1.6776148847115629E9, 0.0, 2023-02-28 12:08:04.711
61.0, 26736.419109871284, -4221.261050851471, 15103.967798229194, -3112.6368776126956, 15139.931755057783, 7482.894657003243, -187500.02235174447, -187500.02235174447, -0.188, -0.768, -0.63, 192.0, 0.0, 0.0, 0.0, 0.0, 0.0, 0.0, 0.0, 0.0, 0.0, 1.6776148847155943E9, 0.0, 2023-02-28 12:08:04.715
62.0, 26619.385375903297, -4224.189129375116, 14363.74507710279, -3110.334647933799, 14752.419561436125, 7226.162520189586, -187500.02235174447, -187500.02235174447, -0.188, -0.768, -0.63, 192.0, 0.0, 0.0, 0.0, 0.0, 0.0, 0.0, 0.0, 0.0, 0.0, 1.6776148847196467E9, 0.0, 2023-02-28 12:08:04.719
63.0, 26716.056670672497, -4226.178434631638, 14780.560407705356, -3119.4765114160195, 14963.352973860858, 7485.778032037978, -187500.02235174447, -187500.02235174447, -0.188, -0.768, -0.63, 192.0, 0.0, 0.0, 0.0, 0.0, 0.0, 0.0, 0.0, 0.0, 0.0, 1.677614884723752E9, 0.0, 2023-02-28 12:08:04.723
64.0, 26882.93479477582, -4225.641992764711, 15590.565275021228, -3123.209252740056, 15387.56673187813, 7786.632512406411, -187500.02235174447, -187500.02235174447, -0.188, -0.768, -0.63, 192.0, 0.0, 0.0, 0.0, 0.0, 0.0, 0.0, 0.0, 0.0, 0.0, 1.6776148847276213E9, 0.0, 2023-02-28 12:08:04.727
65.0, 26809.665776451326, -4227.273670109948, 15267.046125775114, -3115.3190869473324, 15226.231840399723, 7556.074268349918, -187500.02235174447, -187500.02235174447, -0.188, -0.768, -0.63, 192.0, 0.0, 0.0, 0.0, 0.0, 0.0, 0.0, 0.0, 0.0, 0.0, 1.6776148847316089E9, 0.0, 2023-02-28 12:08:04.731
66.0, 26636.439756922693, -4227.0948561543055, 14429.727426734857, -3110.04407525588, 14788.49527698699, 7233.829168537756, -187500.02235174447, -187500.02235174447, -0.188, -0.768, -0.63, 192.0, 0.0, 0.0, 0.0, 0.0, 0.0, 0.0, 0.0, 0.0, 0.0, 1.6776148847356076E9, 0.0, 2023-02-28 12:08:04.735
67.0, 26676.33762077542, -4224.591460775311, 14631.876603588655, -3117.9342410486033, 14886.485324679057, 7411.346723001805, -187500.02235174447, -187500.02235174447, -0.188, -0.768, -0.63, 192.0, 0.0, 0.0, 0.0, 0.0, 0.0, 0.0, 0.0, 0.0, 0.0, 1.6776148847397292E9, 0.0, 2023-02-28 12:08:04.739
68.0, 26822.6297882354, -4222.8703764522525, 15509.227276948366, -3124.237432985, 15344.539623801664, 7763.29729119507, -187500.02235174447, -187500.02235174447, -0.184, -0.766, -0.63, 192.0, 250.0, 64.0, 232.0, 16.0, 236.0, 80.0, 0.0, 0.0, 0.0, 1.6776148847436244E9, 0.0, 2023-02-28 12:08:04.743
69.0, 26787.73871514067, -4222.155120629683, 15410.56667692264, -3117.2860404593994, 15304.954684371316, 7626.012876750574, -187500.02235174447, -187500.02235174447, -0.184, -0.766, -0.63, 192.0, 0.0, 0.0, 0.0, 0.0, 0.0, 0.0, 0.0, 0.0, 0.0, 1.677614884747618E9, 0.0, 2023-02-28 12:08:04.747
70.0, 26652.28714374151, -4222.713914241065, 14528.812709905233, -3110.3793514227095, 14845.536928836935, 7263.400526452127, -187500.02235174447, -187500.02235174447, -0.184, -0.766, -0.63, 192.0, 0.0, 0.0, 0.0, 0.0, 0.0, 0.0, 0.0, 0.0, 0.0, 1.677614884751678E9, 0.0, 2023-02-28 12:08:04.751
71.0, 26682.32788828944, -4223.518577041456, 14506.751538127844, -3116.034342769902, 14822.425225070147, 7353.366297884739, -187500.02235174447, -187500.02235174447, -0.184, -0.766, -0.63, 192.0, 0.0, 0.0, 0.0, 0.0, 0.0, 0.0, 0.0, 0.0, 0.0, 1.6776148847546167E9, 0.0, 2023-02-28 12:08:04.754
72.0, 26831.414023806337, -4222.177472374138, 15389.533685390197, -3123.566880651341, 15280.635986403942, 7734.709410036732, -187500.02235174447, -187500.02235174447, -0.184, -0.766, -0.63, 192.0, 0.0, 0.0, 0.0, 0.0, 0.0, 0.0, 0.0, 0.0, 0.0, 1.6776148847596595E9, 0.0, 2023-02-28 12:08:04.759
73.0, 26836.68903549779, -4219.6964287395995, 15524.806442833717, -3117.66602011514, 15359.51529258672, 7693.559848494512, -187500.02235174447, -187500.02235174447, -0.184, -0.766, -0.63, 192.0, 0.0, 0.0, 0.0, 0.0, 0.0, 0.0, 0.0, 0.0, 0.0, 1.6776148847636368E9, 0.0, 2023-02-28 12:08:04.763
74.0, 26697.169446607764, -4218.735303728021, 14659.458656246503, -3109.0605984998465, 14914.29089478146, 7307.433463029082, -187500.02235174447, -187500.02235174447, -0.184, -0.766, -0.63, 192.0, 0.0, 0.0, 0.0, 0.0, 0.0, 0.0, 0.0, 0.0, 0.0, 1.6776148847676926E9, 0.0, 2023-02-28 12:08:04.767
75.0, 26667.441626482207, -4221.171643873649, 14413.120080604564, -3113.039209012891, 14779.912207116153, 7298.470413502505, -187500.02235174447, -187500.02235174447, -0.184, -0.766, -0.63, 192.0, 0.0, 0.0, 0.0, 0.0, 0.0, 0.0, 0.0, 0.0, 0.0, 1.677614884771679E9, 0.0, 2023-02-28 12:08:04.771
76.0, 26798.57931120149, -4223.786797974921, 15243.576794097042, -3122.7622178509496, 15208.708072746764, 7679.90293263232, -187500.02235174447, -187500.02235174447, -0.184, -0.766, -0.63, 192.0, 0.0, 0.0, 0.0, 0.0, 0.0, 0.0, 0.0, 0.0, 0.0, 1.677614884775716E9, 0.0, 2023-02-28 12:08:04.775
77.0, 26831.615189506436, -4225.686696253621, 15601.964664693436, -3121.33170620581, 15401.71538611834, 7738.308040894037, -187500.02235174447, -187500.02235174447, -0.184, -0.766, -0.63, 192.0, 0.0, 0.0, 0.0, 0.0, 0.0, 0.0, 0.0, 0.0, 0.0, 1.6776148847796357E9, 0.0, 2023-02-28 12:08:04.779
78.0, 26705.90897868979, -4226.1560828871825, 14812.009312153974, -3112.0557322568575, 14995.986520765606, 7360.250635176973, -187500.02235174447, -187500.02235174447, -0.182, -0.77, -0.628, 192.0, 250.0, 80.0, 231.0, 240.0, 236.0, 96.0, 0.0, 0.0, 0.0, 1.6776148847826746E9, 0.0, 2023-02-28 12:08:04.782
79.0, 26643.055873281464, -4225.306716597881, 14359.520597400737, -3113.039209012891, 14755.817026593331, 7253.968090291988, -187500.02235174447, -187500.02235174447, -0.182, -0.77, -0.628, 192.0, 0.0, 0.0, 0.0, 0.0, 0.0, 0.0, 0.0, 0.0, 0.0, 1.6776148847877018E9, 0.0, 2023-02-28 12:08:04.787
80.0, 26767.48803466416, -4224.077370652839, 15081.839571218441, -3122.561052150852, 15123.167946716303, 7614.255859167083, -187500.02235174447, -187500.02235174447, -0.182, -0.77, -0.628, 192.0, 0.0, 0.0, 0.0, 0.0, 0.0, 0.0, 0.0, 0.0, 0.0, 1.6776148847916691E9, 0.0, 2023-02-28 12:08:04.791
81.0, 26847.194355391784, -4222.065713651862, 15637.727455821927, -3121.845796328282, 15416.512240947754, 7773.802611089064, -187500.02235174447, -187500.02235174447, -0.182, -0.77, -0.628, 192.0, 0.0, 0.0, 0.0, 0.0, 0.0, 0.0, 0.0, 0.0, 0.0, 1.6776148847956536E9, 0.0, 2023-02-28 12:08:04.795
82.0, 26726.33847312194, -4218.98117291703, 14979.379174635313, -3111.809863067849, 15077.235111860648, 7432.692638956623, -187500.02235174447, -187500.02235174447, -0.182, -0.77, -0.628, 192.0, 0.0, 0.0, 0.0, 0.0, 0.0, 0.0, 0.0, 0.0, 0.0, 1.6776148847997353E9, 0.0, 2023-02-28 12:08:04.799
83.0, 26644.776957604525, -4220.50109153999, 14348.523539128726, -3111.228717712011, 14745.714038099533, 7235.013810993888, -187500.02235174447, -187500.02235174447, -0.182, -0.77, -0.628, 192.0, 0.0, 0.0, 0.0, 0.0, 0.0, 0.0, 0.0, 0.0, 0.0, 1.677614884803682E9, 0.0, 2023-02-28 12:08:04.803
84.0, 26741.694121562734, -4224.971440431052, 14912.502755225034, -3121.8681480727373, 15035.794977640508, 7543.736105410589, -187500.02235174447, -187500.02235174447, -0.182, -0.77, -0.628, 192.0, 0.0, 0.0, 0.0, 0.0, 0.0, 0.0, 0.0, 0.0, 0.0, 1.6776148848077314E9, 0.0, 2023-02-28 12:08:04.807
85.0, 26833.11275638494, -4223.004486918984, 15629.18908944, -3124.1256742627234, 15413.852383357571, 7787.1018990399725, -187500.02235174447, -187500.02235174447, -0.182, -0.77, -0.628, 192.0, 0.0, 0.0, 0.0, 0.0, 0.0, 0.0, 0.0, 0.0, 0.0, 1.677614884812744E9, 0.0, 2023-02-28 12:08:04.812
86.0, 26737.067310460487, -4219.495263039501, 15144.625621393398, -3113.173319479623, 15170.039554839082, 7502.29597119045, -187500.02235174447, -187500.02235174447, -0.182, -0.77, -0.628, 192.0, 0.0, 0.0, 0.0, 0.0, 0.0, 0.0, 0.0, 0.0, 0.0, 1.677614884815725E9, 0.0, 2023-02-28 12:08:04.815
87.0, 26625.17447771722, -4221.417513062658, 14379.234836010319, -3110.558165378352, 14770.68093665611, 7225.603726578203, -187500.02235174447, -187500.02235174447, -0.182, -0.77, -0.628, 192.0, 0.0, 0.0, 0.0, 0.0, 0.0, 0.0, 0.0, 0.0, 0.0, 1.6776148848207798E9, 0.0, 2023-02-28 12:08:04.820
88.0, 26728.595999311925, -4223.898556697197, 14751.659602124644, -3120.392932938687, 14957.25094762456, 7466.33201436186, -187500.02235174447, -187500.02235174447, -0.178, -0.774, -0.628, 192.0, 250.0, 112.0, 231.0, 208.0, 236.0, 96.0, 0.0, 0.0, 0.0, 1.677614884823701E9, 0.0, 2023-02-28 12:08:04.823
89.0, 26854.413968850848, -4224.16677763066, 15580.08230687169, -3125.3550202077654, 15388.304339445156, 7782.631550148911, -187500.02235174447, -187500.02235174447, -0.178, -0.774, -0.628, 192.0, 0.0, 0.0, 0.0, 0.0, 0.0, 0.0, 0.0, 0.0, 0.0, 1.6776148848276932E9, 0.0, 2023-02-28 12:08:04.827
90.0, 26774.57353765649, -4220.657553751177, 15304.55235297112, -3115.7661218364387, 15253.165692468368, 7575.766155215044, -187500.02235174447, -187500.02235174447, -0.178, -0.774, -0.628, 192.0, 0.0, 0.0, 0.0, 0.0, 0.0, 0.0, 0.0, 0.0, 0.0, 1.677614884831715E9, 0.0, 2023-02-28 12:08:04.831
91.0, 26646.49804192758, -4220.009353161973, 14450.156921167008, -3109.977020022514, 14807.31544581836, 7243.485122142449, -187500.02235174447, -187500.02235174447, -0.178, -0.774, -0.628, 192.0, 0.0, 0.0, 0.0, 0.0, 0.0, 0.0, 0.0, 0.0, 0.0, 1.6776148848357167E9, 0.0, 2023-02-28 12:08:04.835
92.0, 26704.29965308901, -4222.333934585326, 14604.026329997341, -3117.8448340707823, 14880.003318787018, 7404.350626987294, -187500.02235174447, -187500.02235174447, -0.178, -0.774, -0.628, 192.0, 0.0, 0.0, 0.0, 0.0, 0.0, 0.0, 0.0, 0.0, 0.0, 1.6776148848387299E9, 0.0, 2023-02-28 12:08:04.838
93.0, 26841.56171578905, -4224.3902950752135, 15486.629663304051, -3125.757351607961, 15337.521176042697, 7763.476105150713, -187500.02235174447, -187500.02235174447, -0.178, -0.774, -0.628, 192.0, 0.0, 0.0, 0.0, 0.0, 0.0, 0.0, 0.0, 0.0, 0.0, 1.6776148848437145E9, 0.0, 2023-02-28 12:08:04.843
94.0, 26794.176017543796, -4224.725571242043, 15441.613249971064, -3120.2364707275, 15322.545507257642, 7645.034211282041, -187500.02235174447, -187500.02235174447, -0.178, -0.774, -0.628, 192.0, 0.0, 0.0, 0.0, 0.0, 0.0, 0.0, 0.0, 0.0, 0.0, 1.677614884847746E9, 0.0, 2023-02-28 12:08:04.847
95.0, 26652.823585608436, -4225.0384956644175, 14560.060448653752, -3113.083912501802, 14871.107324493805, 7272.832962612268, -187500.02235174447, -187500.02235174447, -0.178, -0.774, -0.628, 192.0, 0.0, 0.0, 0.0, 0.0, 0.0, 0.0, 0.0, 0.0, 0.0, 1.6776148848517816E9, 0.0, 2023-02-28 12:08:04.851
96.0, 26674.772998663546, -4226.133731142728, 14495.083927522175, -3119.3200492048322, 14827.879050717242, 7343.106847179753, -187500.02235174447, -187500.02235174447, -0.178, -0.774, -0.628, 192.0, 0.0, 0.0, 0.0, 0.0, 0.0, 0.0, 0.0, 0.0, 0.0, 1.6776148848557532E9, 0.0, 2023-02-28 12:08:04.855
97.0, 26818.204142833252, -4225.105550897783, 15375.005051494249, -3127.4113806976534, 15287.766192885185, 7727.847424488953, -187500.02235174447, -187500.02235174447, -0.178, -0.774, -0.628, 192.0, 0.0, 0.0, 0.0, 0.0, 0.0, 0.0, 0.0, 0.0, 0.0, 1.6776148848598363E9, 0.0, 2023-02-28 12:08:04.859
98.0, 26814.985491631687, -4221.998658418495, 15482.628701046551, -3121.6669823726397, 15353.65913553943, 7676.61722619739, -187500.02235174447, -187500.02235174447, -0.178, -0.774, -0.628, 192.0, 0.0, 0.0, 0.0, 0.0, 0.0, 0.0, 0.0, 0.0, 0.0, 1.6776148848637452E9, 0.0, 2023-02-28 12:08:04.863
99.0, 26673.320135273952, -4220.188167117616, 14650.964993353486, -3112.9050985461595, 14920.52703148449, 7310.026265385898, -187500.02235174447, -187500.02235174447, -0.178, -0.772, -0.628, 192.0, 250.0, 112.0, 231.0, 224.0, 236.0, 96.0, 0.0, 0.0, 0.0, 1.6776148848668046E9, 0.0, 2023-02-28 12:08:04.866
100.0, 26657.22687926613, -4221.976306674041, 14456.236595658851, -3116.973116037025, 14810.69055923111, 7316.977657911499, -187500.02235174447, -187500.02235174447, -0.178, -0.772, -0.628, 192.0, 0.0, 0.0, 0.0, 0.0, 0.0, 0.0, 0.0, 0.0, 0.0, 1.6776148848717585E9, 0.0, 2023-02-28 12:08:04.871
101.0, 26806.089497338475, -4223.02683866344, 15258.664221604375, -3126.5396626638967, 15226.880040988928, 7683.18863906725, -187500.02235174447, -187500.02235174447, -0.178, -0.772, -0.628, 192.0, 0.0, 0.0, 0.0, 0.0, 0.0, 0.0, 0.0, 0.0, 0.0, 1.6776148848757932E9, 0.0, 2023-02-28 12:08:04.875
102.0, 26831.570486017525, -4224.502053797491, 15568.74997243285, -3125.533834163408, 15396.261560471245, 7723.935869209275, -187500.02235174447, -187500.02235174447, -0.178, -0.772, -0.628, 192.0, 0.0, 0.0, 0.0, 0.0, 0.0, 0.0, 0.0, 0.0, 0.0, 1.6776148848797636E9, 0.0, 2023-02-28 12:08:04.879
103.0, 26693.23553958363, -4223.02683866344, 14797.167753835649, -3115.9002323031705, 14994.958340520661, 7361.390574144194, -187500.02235174447, -187500.02235174447, -0.178, -0.772, -0.628, 192.0, 0.0, 0.0, 0.0, 0.0, 0.0, 0.0, 0.0, 0.0, 0.0, 1.6776148848838406E9, 0.0, 2023-02-28 12:08:04.883
104.0, 26653.69530364219, -4222.624507263245, 14397.049176341197, -3117.2636887149442, 14777.92290185963, 7274.330529490773, -187500.02235174447, -187500.02235174447, -0.178, -0.772, -0.628, 192.0, 0.0, 0.0, 0.0, 0.0, 0.0, 0.0, 0.0, 0.0, 0.0, 1.6776148848868346E9, 0.0, 2023-02-28 12:08:04.886
105.0, 26783.40247671634, -4226.223138120548, 15102.269065650591, -3127.500787675475, 15148.358362717434, 7618.122710957851, -187500.02235174447, -187500.02235174447, -0.178, -0.772, -0.628, 192.0, 0.0, 0.0, 0.0, 0.0, 0.0, 0.0, 0.0, 0.0, 0.0, 1.6776148848909786E9, 0.0, 2023-02-28 12:08:04.890
106.0, 26855.710370029257, -4225.373771831247, 15608.51372581884, -3127.098456275279, 15424.134185807014, 7755.898863780363, -187500.02235174447, -187500.02235174447, -0.178, -0.772, -0.628, 192.0, 0.0, 0.0, 0.0, 0.0, 0.0, 0.0, 0.0, 0.0, 0.0, 1.677614884894811E9, 0.0, 2023-02-28 12:08:04.894
107.0, 26727.836040000446, -4224.457350308579, 14950.657183010244, -3115.5873078807963, 15084.767649742085, 7422.366133018271, -187500.02235174447, -187500.02235174447, -0.178, -0.772, -0.628, 192.0, 0.0, 0.0, 0.0, 0.0, 0.0, 0.0, 0.0, 0.0, 0.0, 1.677614884898796E9, 0.0, 2023-02-28 12:08:04.898
108.0, 26623.967483516633, -4229.799417233398, 14375.278577241728, -3115.8778805587153, 14774.525436702424, 7249.095410000731, -187500.02235174447, -187500.02235174447, -0.178, -0.772, -0.628, 192.0, 0.0, 0.0, 0.0, 0.0, 0.0, 0.0, 0.0, 0.0, 0.0, 1.6776148849038162E9, 0.0, 2023-02-28 12:08:04.903
109.0, 26733.155755180807, -4235.432056836135, 14939.43660729368, -3127.5678429088407, 15060.22543433016, 7553.615576459834, -187500.02235174447, -187500.02235174447, -0.178, -0.764, -0.622, 192.0, 250.0, 112.0, 232.0, 32.0, 236.0, 144.0, 0.0, 0.0, 0.0, 1.677614884907792E9, 0.0, 2023-02-28 12:08:04.907
110.0, 26847.708445514258, -4232.83925447932, 15607.977283951914, -3129.9371278211033, 15414.902915346971, 7777.468297179735, -187500.02235174447, -187500.02235174447, -0.178, -0.764, -0.622, 192.0, 0.0, 0.0, 0.0, 0.0, 0.0, 0.0, 0.0, 0.0, 0.0, 1.6776148849117928E9, 0.0, 2023-02-28 12:08:04.911
111.0, 26750.14308096684, -4228.927699199641, 15109.04164422055, -3119.655325371662, 15157.835502366484, 7494.316398419905, -187500.02235174447, -187500.02235174447, -0.178, -0.764, -0.622, 192.0, 0.0, 0.0, 0.0, 0.0, 0.0, 0.0, 0.0, 0.0, 0.0, 1.6776148849148471E9, 0.0, 2023-02-28 12:08:04.914
112.0, 26646.07335878293, -4227.228966621037, 14394.545780962204, -3116.369618936732, 14778.839323382297, 7242.054610497309, -187500.02235174447, -187500.02235174447, -0.178, -0.764, -0.622, 192.0, 0.0, 0.0, 0.0, 0.0, 0.0, 0.0, 0.0, 0.0, 0.0, 1.6776148849188123E9, 0.0, 2023-02-28 12:08:04.918
113.0, 26724.460926587693, -4227.296021854403, 14783.309672273359, -3125.3550202077654, 14976.138171689294, 7483.72167154809, -187500.02235174447, -187500.02235174447, -0.178, -0.764, -0.622, 192.0, 0.0, 0.0, 0.0, 0.0, 0.0, 0.0, 0.0, 0.0, 0.0, 1.6776148849228177E9, 0.0, 2023-02-28 12:08:04.922
114.0, 26847.484928069705, -4225.798454975898, 15566.403039265042, -3129.087761531802, 15389.421926667921, 7776.417765190336, -187500.02235174447, -187500.02235174447, -0.178, -0.764, -0.622, 192.0, 0.0, 0.0, 0.0, 0.0, 0.0, 0.0, 0.0, 0.0, 0.0, 1.6776148849268217E9, 0.0, 2023-02-28 12:08:04.926
115.0, 26780.7202673817, -4222.803321218887, 15261.54759663911, -3119.1188835047346, 15237.4971196052, 7561.103410852363, -187500.02235174447, -187500.02235174447, -0.178, -0.764, -0.622, 192.0, 0.0, 0.0, 0.0, 0.0, 0.0, 0.0, 0.0, 0.0, 0.0, 1.6776148849319556E9, 0.0, 2023-02-28 12:08:04.931
116.0, 26641.066568024944, -4223.6303357637335, 14455.186063669451, -3113.7991683243717, 14815.138556377717, 7245.161502976597, -187500.02235174447, -187500.02235174447, -0.178, -0.764, -0.622, 192.0, 0.0, 0.0, 0.0, 0.0, 0.0, 0.0, 0.0, 0.0, 0.0, 1.6776148849359248E9, 0.0, 2023-02-28 12:08:04.935
117.0, 26690.218054082165, -4227.810111976875, 14645.198243284018, -3122.6728108731286, 14909.038234834461, 7413.268973024961, -187500.02235174447, -187500.02235174447, -0.178, -0.764, -0.622, 192.0, 0.0, 0.0, 0.0, 0.0, 0.0, 0.0, 0.0, 0.0, 0.0, 1.6776148849398432E9, 0.0, 2023-02-28 12:08:04.939
118.0, 26836.152593630864, -4231.252280622993, 15484.372137114065, -3130.205348754567, 15350.194615148857, 7755.585939357989, -187500.02235174447, -187500.02235174447, -0.178, -0.764, -0.622, 192.0, 0.0, 0.0, 0.0, 0.0, 0.0, 0.0, 0.0, 0.0, 0.0, 1.6776148849428296E9, 0.0, 2023-02-28 12:08:04.942
119.0, 26796.880578622888, -4232.191053890116, 15394.272255214722, -3123.52217716243, 15308.620370461986, 7626.929298273242, -187500.02235174447, -187500.02235174447, -0.182, -0.768, -0.626, 192.0, 250.0, 80.0, 232.0, 0.0, 236.0, 112.0, 0.0, 0.0, 0.0, 1.6776148849468484E9, 0.0, 2023-02-28 12:08:04.946
120.0, 26646.386283205306, -4233.21923413506, 14552.036172394297, -3116.7943020813827, 14865.698202335621, 7275.872799858189, -187500.02235174447, -187500.02235174447, -0.182, -0.768, -0.626, 192.0, 0.0, 0.0, 0.0, 0.0, 0.0, 0.0, 0.0, 0.0, 0.0, 1.6776148849509025E9, 0.0, 2023-02-28 12:08:04.950
121.0, 26670.213242794664, -4233.442751579613, 14527.471605237915, -3122.6728108731286, 14845.179300925649, 7356.942576997588, -187500.02235174447, -187500.02235174447, -0.182, -0.768, -0.626, 192.0, 0.0, 0.0, 0.0, 0.0, 0.0, 0.0, 0.0, 0.0, 0.0, 1.6776148849548452E9, 0.0, 2023-02-28 12:08:04.954
122.0, 26819.098212611465, -4232.16870214566, 15365.99729847876, -3129.5347964209077, 15286.089812051037, 7720.963087196718, -187500.02235174447, -187500.02235174447, -0.182, -0.768, -0.626, 192.0, 0.0, 0.0, 0.0, 0.0, 0.0, 0.0, 0.0, 0.0, 0.0, 1.6776148849598565E9, 0.0, 2023-02-28 12:08:04.959
123.0, 26821.489849268182, -4228.458312566079, 15502.678215822962, -3123.4551219290643, 15368.925377002404, 7683.6803774452665, -187500.02235174447, -187500.02235174447, -0.182, -0.768, -0.626, 192.0, 0.0, 0.0, 0.0, 0.0, 0.0, 0.0, 0.0, 0.0, 0.0, 1.677614884963925E9, 0.0, 2023-02-28 12:08:04.963
124.0, 26687.04410636951, -4225.664344509166, 14679.32935706727, -3113.7097613465503, 14940.107159627338, 7315.725960222002, -187500.02235174447, -187500.02235174447, -0.182, -0.768, -0.626, 192.0, 0.0, 0.0, 0.0, 0.0, 0.0, 0.0, 0.0, 0.0, 0.0, 1.6776148849679143E9, 0.0, 2023-02-28 12:08:04.967
125.0, 26665.877004370333, -4222.490396796513, 14438.9586971949, -3115.788473580894, 14807.538963262912, 7303.298390304851, -187500.02235174447, -187500.02235174447, -0.182, -0.768, -0.626, 192.0, 0.0, 0.0, 0.0, 0.0, 0.0, 0.0, 0.0, 0.0, 0.0, 1.6776148849718893E9, 0.0, 2023-02-28 12:08:04.971
126.0, 26796.12061931141, -4221.037533406918, 15221.739139764208, -3124.4385986850975, 15218.140508906903, 7665.731926647655, -187500.02235174447, -187500.02235174447, -0.182, -0.768, -0.626, 192.0, 0.0, 0.0, 0.0, 0.0, 0.0, 0.0, 0.0, 0.0, 0.0, 1.6776148849749064E9, 0.0, 2023-02-28 12:08:04.974
127.0, 26830.07291913902, -4220.903422940186, 15571.432181767486, -3121.622278883729, 15413.964142079849, 7726.841595988464, -187500.02235174447, -187500.02235174447, -0.182, -0.768, -0.626, 192.0, 0.0, 0.0, 0.0, 0.0, 0.0, 0.0, 0.0, 0.0, 0.0, 1.6776148849789193E9, 0.0, 2023-02-28 12:08:04.978
128.0, 26699.47167628666, -4220.322277584348, 14823.520460548456, -3112.7039328460614, 15021.959247822673, 7372.40998416066, -187500.02235174447, -187500.02235174447, -0.182, -0.768, -0.626, 192.0, 0.0, 0.0, 0.0, 0.0, 0.0, 0.0, 0.0, 0.0, 0.0, 1.6776148849829366E9, 0.0, 2023-02-28 12:08:04.982
129.0, 26649.068492539944, -4221.953954929585, 14387.28146401423, -3114.201499724567, 14783.01909959544, 7270.038994555354, -187500.02235174447, -187500.02235174447, -0.18, -0.764, -0.624, 192.0, 250.0, 96.0, 232.0, 32.0, 236.0, 128.0, 0.0, 0.0, 0.0, 1.6776148849869537E9, 0.0, 2023-02-28 12:08:04.986
130.0, 26778.753313869634, -4222.468045052057, 15062.17003609777, -3123.3210114623325, 15134.634391621876, 7606.320989885448, -187500.02235174447, -187500.02235174447, -0.18, -0.764, -0.624, 192.0, 0.0, 0.0, 0.0, 0.0, 0.0, 0.0, 0.0, 0.0, 0.0, 1.6776148849918852E9, 0.0, 2023-02-28 12:08:04.991
131.0, 26854.011637450654, -4221.372809573747, 15604.155135650057, -3122.784569595405, 15426.458767230364, 7764.571340629022, -187500.02235174447, -187500.02235174447, -0.18, -0.764, -0.624, 192.0, 0.0, 0.0, 0.0, 0.0, 0.0, 0.0, 0.0, 0.0, 0.0, 1.677614884995899E9, 0.0, 2023-02-28 12:08:04.995
132.0, 26728.461888845195, -4223.004486918984, 14980.63087232481, -3114.112092746746, 15101.03971970555, 7437.677077970157, -187500.02235174447, -187500.02235174447, -0.18, -0.764, -0.624, 192.0, 0.0, 0.0, 0.0, 0.0, 0.0, 0.0, 0.0, 0.0, 0.0, 1.677614884998942E9, 0.0, 2023-02-28 12:08:04.998
133.0, 26639.434890679706, -4224.591460775311, 14376.03853655321, -3113.7097613465503, 14774.994823335985, 7245.765000076891, -187500.02235174447, -187500.02235174447, -0.18, -0.764, -0.624, 192.0, 0.0, 0.0, 0.0, 0.0, 0.0, 0.0, 0.0, 0.0, 0.0, 1.677614885002978E9, 0.0, 2023-02-28 12:08:05.002
134.0, 26742.029397729566, -4223.496225297002, 14901.66215916421, -3122.784569595405, 15045.629745200844, 7537.321154751916, -187500.02235174447, -187500.02235174447, -0.18, -0.764, -0.624, 192.0, 0.0, 0.0, 0.0, 0.0, 0.0, 0.0, 0.0, 0.0, 0.0, 1.67761488500699E9, 0.0, 2023-02-28 12:08:05.006
135.0, 26845.920305957832, -4223.1609491301715, 15597.449612313463, -3125.913813819148, 15418.14391829299, 7776.082489023506, -187500.02235174447, -187500.02235174447, -0.18, -0.764, -0.624, 192.0, 0.0, 0.0, 0.0, 0.0, 0.0, 0.0, 0.0, 0.0, 0.0, 1.6776148850109432E9, 0.0, 2023-02-28 12:08:05.010
136.0, 26750.90304027832, -4222.31158284087, 15140.423493435801, -3116.526081147919, 15185.708127702252, 7503.704131091134, -187500.02235174447, -187500.02235174447, -0.18, -0.764, -0.624, 192.0, 0.0, 0.0, 0.0, 0.0, 0.0, 0.0, 0.0, 0.0, 0.0, 1.677614885014927E9, 0.0, 2023-02-28 12:08:05.014
137.0, 26638.116137756842, -4220.769312473454, 14403.218257810862, -3112.4133601681424, 14793.144439833695, 7240.33352617425, -187500.02235174447, -187500.02235174447, -0.18, -0.764, -0.624, 192.0, 0.0, 0.0, 0.0, 0.0, 0.0, 0.0, 0.0, 0.0, 0.0, 1.6776148850199575E9, 0.0, 2023-02-28 12:08:05.019
138.0, 26716.682519517246, -4220.612850262267, 14750.899642813165, -3122.0469620283798, 14970.036145452994, 7470.377680108271, -187500.02235174447, -187500.02235174447, -0.18, -0.764, -0.624, 192.0, 0.0, 0.0, 0.0, 0.0, 0.0, 0.0, 0.0, 0.0, 0.0, 1.6776148850239682E9, 0.0, 2023-02-28 12:08:05.023
139.0, 26840.622942521924, -4222.848024707798, 15549.527472201285, -3128.171340009134, 15393.892275558983, 7770.561608143045, -187500.02235174447, -187500.02235174447, -0.184, -0.766, -0.63, 192.0, 250.0, 64.0, 232.0, 16.0, 236.0, 80.0, 0.0, 0.0, 0.0, 1.6776148850269756E9, 0.0, 2023-02-28 12:08:05.026
140.0, 26772.807749844524, -4223.853853208287, 15290.73897489774, -3120.5046916609635, 15263.291032706624, 7571.295806323983, -187500.02235174447, -187500.02235174447, -0.184, -0.766, -0.63, 192.0, 0.0, 0.0, 0.0, 0.0, 0.0, 0.0, 0.0, 0.0, 0.0, 1.67761488503196E9, 0.0, 2023-02-28 12:08:05.031
141.0, 26639.45724242416, -4224.680867753133, 14472.53101736677, -3114.8720520582265, 14828.37078909526, 7250.928253046067, -187500.02235174447, -187500.02235174447, -0.184, -0.766, -0.63, 192.0, 0.0, 0.0, 0.0, 0.0, 0.0, 0.0, 0.0, 0.0, 0.0, 1.677614885035992E9, 0.0, 2023-02-28 12:08:05.035
142.0, 26699.404621053294, -4226.424303820647, 14619.56079239378, -3121.890499817193, 14898.6670254072, 7406.22817352154, -187500.02235174447, -187500.02235174447, -0.184, -0.766, -0.63, 192.0, 0.0, 0.0, 0.0, 0.0, 0.0, 0.0, 0.0, 0.0, 0.0, 1.6776148850389676E9, 0.0, 2023-02-28 12:08:05.038
143.0, 26858.437282852803, -4228.927699199641, 15459.651107746497, -3129.065409787346, 15343.13146390098, 7753.395468401369, -187500.02235174447, -187500.02235174447, -0.184, -0.766, -0.63, 192.0, 0.0, 0.0, 0.0, 0.0, 0.0, 0.0, 0.0, 0.0, 0.0, 1.6776148850440252E9, 0.0, 2023-02-28 12:08:05.044
144.0, 26820.77459344561, -4229.821768977853, 15416.981627581315, -3122.181072495112, 15326.457062537322, 7643.022554281063, -187500.02235174447, -187500.02235174447, -0.184, -0.766, -0.63, 192.0, 0.0, 0.0, 0.0, 0.0, 0.0, 0.0, 0.0, 0.0, 0.0, 1.6776148850479815E9, 0.0, 2023-02-28 12:08:05.047
145.0, 26656.332809487918, -4230.760542244976, 14575.93018721702, -3115.408493925154, 14882.886693821752, 7285.573456951793, -187500.02235174447, -187500.02235174447, -0.184, -0.766, -0.63, 192.0, 0.0, 0.0, 0.0, 0.0, 0.0, 0.0, 0.0, 0.0, 0.0, 1.6776148850529957E9, 0.0, 2023-02-28 12:08:05.052
146.0, 26653.158861775264, -4231.855777723286, 14507.377386972594, -3120.5717468943294, 14839.837234000832, 7347.085457692798, -187500.02235174447, -187500.02235174447, -0.184, -0.766, -0.63, 192.0, 0.0, 0.0, 0.0, 0.0, 0.0, 0.0, 0.0, 0.0, 0.0, 1.6776148850569987E9, 0.0, 2023-02-28 12:08:05.056
147.0, 26790.800904131047, -4233.353344601792, 15335.867146953005, -3128.2383952425, 15276.992652057726, 7708.8037382130315, -187500.02235174447, -187500.02235174447, -0.184, -0.766, -0.63, 192.0, 0.0, 0.0, 0.0, 0.0, 0.0, 0.0, 0.0, 0.0, 0.0, 1.6776148850600636E9, 0.0, 2023-02-28 12:08:05.060
148.0, 26805.73186942719, -4231.051114922895, 15516.804518318717, -3122.561052150852, 15383.811638809639, 7693.649255472334, -187500.02235174447, -187500.02235174447, -0.184, -0.766, -0.63, 192.0, 0.0, 0.0, 0.0, 0.0, 0.0, 0.0, 0.0, 0.0, 0.0, 1.677614885063002E9, 0.0, 2023-02-28 12:08:05.063
149.0, 26659.32794324493, -4230.782893989432, 14706.419671347103, -3114.3579619357542, 14960.871930226318, 7325.136044637686, -187500.02235174447, -187500.02235174447, -0.184, -0.762, -0.624, 192.0, 250.0, 64.0, 232.0, 48.0, 236.0, 128.0, 0.0, 0.0, 0.0, 1.6776148850670543E9, 0.0, 2023-02-28 12:08:05.067
150.0, 26627.32024518493, -4230.112341655772, 14425.94998192191, -3116.973116037025, 14807.091928373806, 7294.849430900745, -187500.02235174447, -187500.02235174447, -0.184, -0.762, -0.624, 192.0, 0.0, 0.0, 0.0, 0.0, 0.0, 0.0, 0.0, 0.0, 0.0, 1.6776148850710013E9, 0.0, 2023-02-28 12:08:05.071
151.0, 26768.24799397564, -4229.508844555479, 15190.469049271233, -3125.846758585782, 15205.467069800743, 7654.734868375644, -187500.02235174447, -187500.02235174447, -0.184, -0.762, -0.624, 192.0, 0.0, 0.0, 0.0, 0.0, 0.0, 0.0, 0.0, 0.0, 0.0, 1.6776148850760064E9, 0.0, 2023-02-28 12:08:05.076
152.0, 26822.361567301938, -4227.340725343314, 15582.876274928603, -3123.1198457622345, 15415.707578147361, 7740.498511850657, -187500.02235174447, -187500.02235174447, -0.184, -0.762, -0.624, 192.0, 0.0, 0.0, 0.0, 0.0, 0.0, 0.0, 0.0, 0.0, 0.0, 1.6776148850790057E9, 0.0, 2023-02-28 12:08:05.079
153.0, 26689.972184893155, -4227.832463721331, 14858.076257476361, -3114.179147980112, 15037.203137541192, 7386.290417467406, -187500.02235174447, -187500.02235174447, -0.184, -0.762, -0.624, 192.0, 0.0, 0.0, 0.0, 0.0, 0.0, 0.0, 0.0, 0.0, 0.0, 1.6776148850830615E9, 0.0, 2023-02-28 12:08:05.083
154.0, 26628.951922530166, -4229.330030599836, 14380.598292422092, -3114.8944038026816, 14780.44864898308, 7262.126477018175, -187500.02235174447, -187500.02235174447, -0.184, -0.762, -0.624, 192.0, 0.0, 0.0, 0.0, 0.0, 0.0, 0.0, 0.0, 0.0, 0.0, 1.6776148850871086E9, 0.0, 2023-02-28 12:08:05.087
155.0, 26757.854432803924, -4232.571033545856, 15030.698779904698, -3125.3550202077654, 15114.316655912002, 7592.7534810010775, -187500.02235174447, -187500.02235174447, -0.184, -0.762, -0.624, 192.0, 0.0, 0.0, 0.0, 0.0, 0.0, 0.0, 0.0, 0.0, 0.0, 1.6776148850910194E9, 0.0, 2023-02-28 12:08:05.091
156.0, 26863.80170152208, -4232.347516101303, 15609.832478741704, -3126.8302353418158, 15420.2896857607, 7767.9688057862295, -187500.02235174447, -187500.02235174447, -0.184, -0.762, -0.624, 192.0, 0.0, 0.0, 0.0, 0.0, 0.0, 0.0, 0.0, 0.0, 0.0, 1.6776148850950153E9, 0.0, 2023-02-28 12:08:05.095
157.0, 26748.891383277343, -4228.637126521722, 15017.77947160953, -3116.4813776590086, 15115.680112323775, 7453.166836877685, -187500.02235174447, -187500.02235174447, -0.184, -0.762, -0.624, 192.0, 0.0, 0.0, 0.0, 0.0, 0.0, 0.0, 0.0, 0.0, 0.0, 1.6776148850990834E9, 0.0, 2023-02-28 12:08:05.099
158.0, 26630.89652429778, -4226.625469520744, 14378.117248787554, -3114.3579619357542, 14778.839323382297, 7244.334488431751, -187500.02235174447, -187500.02235174447, -0.184, -0.762, -0.624, 192.0, 0.0, 0.0, 0.0, 0.0, 0.0, 0.0, 0.0, 0.0, 0.0, 1.6776148851040287E9, 0.0, 2023-02-28 12:08:05.104
159.0, 26719.185914896243, -4225.463178809068, 14869.118019237283, -3123.52217716243, 15031.279925260536, 7523.574831911902, -187500.02235174447, -187500.02235174447, -0.18, -0.764, -0.626, 192.0, 250.0, 96.0, 232.0, 32.0, 236.0, 112.0, 0.0, 0.0, 0.0, 1.6776148851071217E9, 0.0, 2023-02-28 12:08:05.107
160.0, 26828.26242783814, -4222.959783430074, 15589.067708142724, -3125.757351607961, 15415.059377558158, 7778.027090791117, -187500.02235174447, -187500.02235174447, -0.18, -0.764, -0.626, 192.0, 0.0, 0.0, 0.0, 0.0, 0.0, 0.0, 0.0, 0.0, 0.0, 1.6776148851110792E9, 0.0, 2023-02-28 12:08:05.111
161.0, 26739.23542967265, -4220.568146773356, 15171.201845550759, -3116.6378398701954, 15205.042386656092, 7521.831395844388, -187500.02235174447, -187500.02235174447, -0.18, -0.764, -0.626, 192.0, 0.0, 0.0, 0.0, 0.0, 0.0, 0.0, 0.0, 0.0, 0.0, 1.6776148851150556E9, 0.0, 2023-02-28 12:08:05.115
162.0, 26624.772146317024, -4218.198861861094, 14411.600161981603, -3111.3628281787433, 14804.901457417185, 7245.00504076541, -187500.02235174447, -187500.02235174447, -0.18, -0.764, -0.626, 192.0, 0.0, 0.0, 0.0, 0.0, 0.0, 0.0, 0.0, 0.0, 0.0, 1.6776148851191175E9, 0.0, 2023-02-28 12:08:05.119
163.0, 26702.71267923268, -4222.333934585326, 14721.283581409882, -3120.5046916609635, 14958.301479613958, 7456.586653779346, -187500.02235174447, -187500.02235174447, -0.18, -0.764, -0.626, 192.0, 0.0, 0.0, 0.0, 0.0, 0.0, 0.0, 0.0, 0.0, 0.0, 1.677614885123077E9, 0.0, 2023-02-28 12:08:05.123
164.0, 26832.911590684846, -4225.21730962006, 15531.959001059415, -3126.9866975530026, 15382.045850997669, 7771.656843621355, -187500.02235174447, -187500.02235174447, -0.18, -0.764, -0.626, 192.0, 0.0, 0.0, 0.0, 0.0, 0.0, 0.0, 0.0, 0.0, 0.0, 1.677614885127274E9, 0.0, 2023-02-28 12:08:05.127
165.0, 26775.489959179158, -4223.853853208287, 15319.192745589346, -3118.6047933822624, 15276.187989257336, 7592.507611812069, -187500.02235174447, -187500.02235174447, -0.18, -0.764, -0.626, 192.0, 0.0, 0.0, 0.0, 0.0, 0.0, 0.0, 0.0, 0.0, 0.0, 1.6776148851321144E9, 0.0, 2023-02-28 12:08:05.132
166.0, 26641.088919769398, -4222.445693307602, 14491.15002049804, -3111.496938645475, 14843.882899747241, 7261.433572940061, -187500.02235174447, -187500.02235174447, -0.18, -0.764, -0.626, 192.0, 0.0, 0.0, 0.0, 0.0, 0.0, 0.0, 0.0, 0.0, 0.0, 1.6776148851352084E9, 0.0, 2023-02-28 12:08:05.135
167.0, 26676.605841708883, -4224.725571242043, 14592.358719391672, -3119.655325371662, 14885.010109545006, 7396.147536772197, -187500.02235174447, -187500.02235174447, -0.18, -0.764, -0.626, 192.0, 0.0, 0.0, 0.0, 0.0, 0.0, 0.0, 0.0, 0.0, 0.0, 1.6776148851391368E9, 0.0, 2023-02-28 12:08:05.139
168.0, 26829.044738894077, -4223.518577041456, 15436.204127812878, -3127.4113806976534, 15329.631010249974, 7749.48391312169, -187500.02235174447, -187500.02235174447, -0.18, -0.764, -0.626, 192.0, 0.0, 0.0, 0.0, 0.0, 0.0, 0.0, 0.0, 0.0, 0.0, 1.6776148851441138E9, 0.0, 2023-02-28 12:08:05.144
169.0, 26804.502523482148, -4223.451521808091, 15442.954354638381, -3121.2870027168997, 15343.310277856623, 7658.445257955224, -187500.02235174447, -187500.02235174447, -0.186, -0.766, -0.626, 192.0, 250.0, 48.0, 232.0, 16.0, 236.0, 112.0, 0.0, 0.0, 0.0, 1.6776148851491468E9, 0.0, 2023-02-28 12:08:05.149
170.0, 26668.067475326956, -4219.0482281503955, 14601.567638107257, -3111.8322148123048, 14905.32784525488, 7298.224544313496, -187500.02235174447, -187500.02235174447, -0.186, -0.766, -0.626, 192.0, 0.0, 0.0, 0.0, 0.0, 0.0, 0.0, 0.0, 0.0, 0.0, 1.6776148851521485E9, 0.0, 2023-02-28 12:08:05.152
171.0, 26669.542690461003, -4218.623545005745, 14485.427973917482, -3115.9672875365363, 14839.278440389447, 7340.223472145019, -187500.02235174447, -187500.02235174447, -0.186, -0.766, -0.626, 192.0, 0.0, 0.0, 0.0, 0.0, 0.0, 0.0, 0.0, 0.0, 0.0, 1.6776148851571825E9, 0.0, 2023-02-28 12:08:05.157
172.0, 26794.712459410723, -4224.434998564124, 15305.55818147161, -3125.846758585782, 15263.648660617908, 7703.372264310392, -187500.02235174447, -187500.02235174447, -0.186, -0.766, -0.626, 192.0, 0.0, 0.0, 0.0, 0.0, 0.0, 0.0, 0.0, 0.0, 0.0, 1.677614885160124E9, 0.0, 2023-02-28 12:08:05.160
173.0, 26793.326651254494, -4229.106513155283, 15536.406998206021, -3122.538700406397, 15392.215894724834, 7708.222592857193, -187500.02235174447, -187500.02235174447, -0.186, -0.766, -0.626, 192.0, 0.0, 0.0, 0.0, 0.0, 0.0, 0.0, 0.0, 0.0, 0.0, 1.6776148851641152E9, 0.0, 2023-02-28 12:08:05.164
174.0, 26647.168594261242, -4227.586594532322, 14739.120273485218, -3113.039209012891, 14979.893264757786, 7344.537358824892, -187500.02235174447, -187500.02235174447, -0.186, -0.766, -0.626, 192.0, 0.0, 0.0, 0.0, 0.0, 0.0, 0.0, 0.0, 0.0, 0.0, 1.677614885167225E9, 0.0, 2023-02-28 12:08:05.167
175.0, 26620.726480570615, -4226.4466555651015, 14412.42717652645, -3115.4755491585197, 14804.610884739268, 7291.004930854432, -187500.02235174447, -187500.02235174447, -0.186, -0.766, -0.626, 192.0, 0.0, 0.0, 0.0, 0.0, 0.0, 0.0, 0.0, 0.0, 0.0, 1.6776148851712365E9, 0.0, 2023-02-28 12:08:05.171
176.0, 26733.088699947442, -4234.515635313468, 15155.913252343327, -3126.2490899859777, 15190.558456249055, 7642.03907752503, -187500.02235174447, -187500.02235174447, -0.186, -0.766, -0.626, 192.0, 0.0, 0.0, 0.0, 0.0, 0.0, 0.0, 0.0, 0.0, 0.0, 1.677614885176168E9, 0.0, 2023-02-28 12:08:05.176
177.0, 26758.212060715206, -4243.79160926242, 15593.560408778241, -3126.2490899859777, 15422.211935783856, 7743.046610718562, -187500.02235174447, -187500.02235174447, -0.186, -0.766, -0.626, 192.0, 0.0, 0.0, 0.0, 0.0, 0.0, 0.0, 0.0, 0.0, 0.0, 1.6776148851791573E9, 0.0, 2023-02-28 12:08:05.179
178.0, 26609.036518220488, -4246.853798252797, 14893.213199760105, -3117.107226503757, 15057.722038951164, 7397.8462693508, -187500.02235174447, -187500.02235174447, -0.186, -0.766, -0.626, 192.0, 0.0, 0.0, 0.0, 0.0, 0.0, 0.0, 0.0, 0.0, 0.0, 1.677614885183198E9, 0.0, 2023-02-28 12:08:05.183
179.0, 26530.91717134919, -4250.117152943272, 14380.061850555165, -3117.33074394831, 14781.11920131674, 7256.739706604446, -187500.02235174447, -187500.02235174447, -0.186, -0.766, -0.634, 192.0, 250.0, 48.0, 232.0, 16.0, 236.0, 48.0, 0.0, 0.0, 0.0, 1.6776148851871345E9, 0.0, 2023-02-28 12:08:05.187
180.0, 26631.94705628718, -4259.326071658858, 14996.187686465704, -3129.400685954176, 15097.910475481805, 7575.542637770491, -187500.02235174447, -187500.02235174447, -0.186, -0.766, -0.634, 192.0, 0.0, 0.0, 0.0, 0.0, 0.0, 0.0, 0.0, 0.0, 0.0, 1.6776148851912563E9, 0.0, 2023-02-28 12:08:05.191
181.0, 26708.747650235615, -4265.0704699838725, 15611.195935153477, -3132.6416889001953, 15422.077825317125, 7771.053346521062, -187500.02235174447, -187500.02235174447, -0.186, -0.766, -0.634, 192.0, 0.0, 0.0, 0.0, 0.0, 0.0, 0.0, 0.0, 0.0, 0.0, 1.677614885195146E9, 0.0, 2023-02-28 12:08:05.195
182.0, 26585.63424177578, -4266.165705462183, 15054.145759838315, -3123.4104184401535, 15135.461406166722, 7466.354366106316, -187500.02235174447, -187500.02235174447, -0.186, -0.766, -0.634, 192.0, 0.0, 0.0, 0.0, 0.0, 0.0, 0.0, 0.0, 0.0, 0.0, 1.6776148851992269E9, 0.0, 2023-02-28 12:08:05.199
183.0, 26476.021286966956, -4269.205542708104, 14387.057946569676, -3122.136369006201, 14778.839323382297, 7241.585223863748, -187500.02235174447, -187500.02235174447, -0.186, -0.766, -0.634, 192.0, 0.0, 0.0, 0.0, 0.0, 0.0, 0.0, 0.0, 0.0, 0.0, 1.677614885203179E9, 0.0, 2023-02-28 12:08:05.203
184.0, 26566.903479922235, -4271.306606686903, 14840.46308284558, -3132.1275987777235, 15009.01758778305, 7507.995666026553, -187500.02235174447, -187500.02235174447, -0.186, -0.766, -0.634, 192.0, 0.0, 0.0, 0.0, 0.0, 0.0, 0.0, 0.0, 0.0, 0.0, 1.6776148852082193E9, 0.0, 2023-02-28 12:08:05.208
185.0, 26683.66899295676, -4269.563170619389, 15586.94429241947, -3135.4133052126535, 15402.676511129917, 7780.9998728036735, -187500.02235174447, -187500.02235174447, -0.186, -0.766, -0.634, 192.0, 0.0, 0.0, 0.0, 0.0, 0.0, 0.0, 0.0, 0.0, 0.0, 1.677614885212195E9, 0.0, 2023-02-28 12:08:05.212
186.0, 26599.44761984916, -4269.786688063942, 15212.999607682183, -3126.2490899859777, 15213.111366404459, 7540.49510246457, -187500.02235174447, -187500.02235174447, -0.186, -0.766, -0.634, 192.0, 0.0, 0.0, 0.0, 0.0, 0.0, 0.0, 0.0, 0.0, 0.0, 1.677614885215253E9, 0.0, 2023-02-28 12:08:05.215
187.0, 26469.33811537482, -4269.786688063942, 14435.404769826506, -3121.555223650363, 14805.147326606195, 7250.727087345968, -187500.02235174447, -187500.02235174447, -0.186, -0.766, -0.634, 192.0, 0.0, 0.0, 0.0, 0.0, 0.0, 0.0, 0.0, 0.0, 0.0, 1.6776148852192192E9, 0.0, 2023-02-28 12:08:05.219
188.0, 26521.887066589246, -4273.2288567100595, 14696.540200297857, -3130.205348754567, 14932.619325234811, 7448.785894964444, -187500.02235174447, -187500.02235174447, -0.186, -0.766, -0.634, 192.0, 0.0, 0.0, 0.0, 0.0, 0.0, 0.0, 0.0, 0.0, 0.0, 1.6776148852231874E9, 0.0, 2023-02-28 12:08:05.223
189.0, 26652.823585608436, -4274.793478821931, 15520.291390453744, -3136.6650029021507, 15362.309260643633, 7776.462468679246, -187500.02235174447, -187500.02235174447, -0.19, -0.766, -0.632, 192.0, 250.0, 16.0, 232.0, 16.0, 236.0, 64.0, 0.0, 0.0, 0.0, 1.6776148852272513E9, 0.0, 2023-02-28 12:08:05.227
190.0, 26607.27073040852, -4272.871228798775, 15353.94970821735, -3128.3501539647764, 15284.994576572726, 7612.668885310756, -187500.02235174447, -187500.02235174447, -0.19, -0.766, -0.632, 192.0, 0.0, 0.0, 0.0, 0.0, 0.0, 0.0, 0.0, 0.0, 0.0, 1.6776148852312007E9, 0.0, 2023-02-28 12:08:05.231
191.0, 26455.94942044609, -4275.486382900046, 14519.290866767273, -3122.4492934285754, 14848.308545149392, 7274.621102168692, -187500.02235174447, -187500.02235174447, -0.19, -0.766, -0.632, 192.0, 0.0, 0.0, 0.0, 0.0, 0.0, 0.0, 0.0, 0.0, 0.0, 1.6776148852342606E9, 0.0, 2023-02-28 12:08:05.234
192.0, 26483.844397526314, -4279.554400390912, 14571.437486581504, -3130.205348754567, 14866.435809902647, 7389.665530880157, -187500.02235174447, -187500.02235174447, -0.19, -0.766, -0.632, 192.0, 0.0, 0.0, 0.0, 0.0, 0.0, 0.0, 0.0, 0.0, 0.0, 1.6776148852392201E9, 0.0, 2023-02-28 12:08:05.239
193.0, 26625.040367250487, -4283.42125218168, 15414.14295603549, -3139.0342878144133, 15306.720472183284, 7743.739514796676, -187500.02235174447, -187500.02235174447, -0.19, -0.766, -0.632, 192.0, 0.0, 0.0, 0.0, 0.0, 0.0, 0.0, 0.0, 0.0, 0.0, 1.6776148852432563E9, 0.0, 2023-02-28 12:08:05.243
194.0, 26616.6808148242, -4280.89550505823, 15469.105895651091, -3132.462874944553, 15342.975001689792, 7675.454935485714, -187500.02235174447, -187500.02235174447, -0.19, -0.766, -0.632, 192.0, 0.0, 0.0, 0.0, 0.0, 0.0, 0.0, 0.0, 0.0, 0.0, 1.677614885247193E9, 0.0, 2023-02-28 12:08:05.247
195.0, 26468.511100829972, -4282.75069984802, 14635.430530957048, -3125.265613229944, 14904.634941176766, 7314.675428232602, -187500.02235174447, -187500.02235174447, -0.19, -0.766, -0.632, 192.0, 0.0, 0.0, 0.0, 0.0, 0.0, 0.0, 0.0, 0.0, 0.0, 1.6776148852512622E9, 0.0, 2023-02-28 12:08:05.251
196.0, 26458.05048442489, -4285.343502204836, 14474.565026112203, -3130.0935900322906, 14813.015140654463, 7336.602489543258, -187500.02235174447, -187500.02235174447, -0.19, -0.766, -0.632, 192.0, 0.0, 0.0, 0.0, 0.0, 0.0, 0.0, 0.0, 0.0, 0.0, 1.67761488525523E9, 0.0, 2023-02-28 12:08:05.255
197.0, 26600.587558816384, -4286.014054538495, 15281.26183524869, -3139.458970959064, 15230.903354990884, 7701.740586965155, -187500.02235174447, -187500.02235174447, -0.19, -0.766, -0.632, 192.0, 0.0, 0.0, 0.0, 0.0, 0.0, 0.0, 0.0, 0.0, 0.0, 1.677614885259226E9, 0.0, 2023-02-28 12:08:05.259
198.0, 26621.911123026744, -4285.231743482559, 15557.730562416384, -3135.0556773013686, 15384.593949865575, 7730.261412890127, -187500.02235174447, -187500.02235174447, -0.19, -0.766, -0.632, 192.0, 0.0, 0.0, 0.0, 0.0, 0.0, 0.0, 0.0, 0.0, 0.0, 1.6776148852622972E9, 0.0, 2023-02-28 12:08:05.262
199.0, 26477.071818956356, -4284.3823771932575, 14777.654680926167, -3125.6679446301396, 14977.926311245717, 7368.654891092168, -187500.02235174447, -187500.02235174447, -0.186, -0.768, -0.634, 192.0, 250.0, 48.0, 232.0, 0.0, 236.0, 48.0, 0.0, 0.0, 0.0, 1.6776148852662609E9, 0.0, 2023-02-28 12:08:05.266
200.0, 26435.85520218077, -4284.13650800425, 14408.225048568851, -3127.746656864483, 14777.811143137355, 7297.308122790829, -187500.02235174447, -187500.02235174447, -0.186, -0.768, -0.634, 192.0, 0.0, 0.0, 0.0, 0.0, 0.0, 0.0, 0.0, 0.0, 0.0, 1.6776148852712235E9, 0.0, 2023-02-28 12:08:05.271
201.0, 26565.36120955482, -4287.668083628188, 15128.577068874487, -3138.654308158673, 15152.068752297015, 7645.660060126789, -187500.02235174447, -187500.02235174447, -0.186, -0.768, -0.634, 192.0, 0.0, 0.0, 0.0, 0.0, 0.0, 0.0, 0.0, 0.0, 0.0, 1.6776148852752433E9, 0.0, 2023-02-28 12:08:05.275
202.0, 26627.677873096214, -4287.712787117099, 15607.418490340531, -3137.827293613827, 15407.012749554247, 7767.477067408213, -187500.02235174447, -187500.02235174447, -0.186, -0.768, -0.634, 192.0, 0.0, 0.0, 0.0, 0.0, 0.0, 0.0, 0.0, 0.0, 0.0, 1.6776148852793396E9, 0.0, 2023-02-28 12:08:05.279
203.0, 26494.506179631495, -4287.981008050562, 14933.111063612827, -3129.2665754874442, 15057.02913487305, 7430.99390637802, -187500.02235174447, -187500.02235174447, -0.186, -0.768, -0.634, 192.0, 0.0, 0.0, 0.0, 0.0, 0.0, 0.0, 0.0, 0.0, 0.0, 1.6776148852832835E9, 0.0, 2023-02-28 12:08:05.283
204.0, 26413.190533303088, -4290.104423773816, 14381.626472667036, -3129.6689068876394, 14762.388439463191, 7267.759116620912, -187500.02235174447, -187500.02235174447, -0.186, -0.768, -0.634, 192.0, 0.0, 0.0, 0.0, 0.0, 0.0, 0.0, 0.0, 0.0, 0.0, 1.67761488528724E9, 0.0, 2023-02-28 12:08:05.287
205.0, 26534.06876731739, -4289.836202840353, 14968.493875085578, -3138.9672325810475, 15064.36050705439, 7575.699099981678, -187500.02235174447, -187500.02235174447, -0.186, -0.768, -0.634, 192.0, 0.0, 0.0, 0.0, 0.0, 0.0, 0.0, 0.0, 0.0, 0.0, 1.677614885290293E9, 0.0, 2023-02-28 12:08:05.290
206.0, 26620.21239044814, -4292.853688341819, 15614.682807288506, -3141.180055282123, 15403.168249507935, 7787.7500996291765, -187500.02235174447, -187500.02235174447, -0.186, -0.768, -0.634, 192.0, 0.0, 0.0, 0.0, 0.0, 0.0, 0.0, 0.0, 0.0, 0.0, 1.677614885294294E9, 0.0, 2023-02-28 12:08:05.294
207.0, 26511.694671117624, -4292.965447064095, 15093.641292290842, -3131.6358603997064, 15137.361304445423, 7494.830488542377, -187500.02235174447, -187500.02235174447, -0.186, -0.768, -0.634, 192.0, 0.0, 0.0, 0.0, 0.0, 0.0, 0.0, 0.0, 0.0, 0.0, 1.677614885299298E9, 0.0, 2023-02-28 12:08:05.299
208.0, 26412.1847048026, -4292.60781915281, 14397.339749019116, -3129.400685954176, 14767.663451154644, 7252.783447835857, -187500.02235174447, -187500.02235174447, -0.186, -0.768, -0.634, 192.0, 0.0, 0.0, 0.0, 0.0, 0.0, 0.0, 0.0, 0.0, 0.0, 1.6776148853033416E9, 0.0, 2023-02-28 12:08:05.303
209.0, 26505.68205185915, -4292.719577875087, 14814.110376132772, -3138.5425494363967, 14976.406392622757, 7507.414520670715, -187500.02235174447, -187500.02235174447, -0.182, -0.772, -0.632, 192.0, 250.0, 80.0, 231.0, 224.0, 236.0, 64.0, 0.0, 0.0, 0.0, 1.677614885309281E9, 0.0, 2023-02-28 12:08:05.309
210.0, 26617.75369855806, -4295.46884244309, 15582.049260383757, -3143.392877983198, 15379.922435274415, 7791.2146200197485, -187500.02235174447, -187500.02235174447, -0.182, -0.772, -0.632, 192.0, 0.0, 0.0, 0.0, 0.0, 0.0, 0.0, 0.0, 0.0, 0.0, 1.6776148853122692E9, 0.0, 2023-02-28 12:08:05.312
211.0, 26545.132880822766, -4291.154955763216, 15249.075323233048, -3134.0274970564246, 15216.754700750675, 7565.953739399164, -187500.02235174447, -187500.02235174447, -0.182, -0.772, -0.632, 192.0, 0.0, 0.0, 0.0, 0.0, 0.0, 0.0, 0.0, 0.0, 0.0, 1.6776148853153028E9, 0.0, 2023-02-28 12:08:05.315
212.0, 26422.555914229863, -4288.740967362042, 14453.286165390751, -3129.33363072081, 14798.017120124952, 7262.48410492946, -187500.02235174447, -187500.02235174447, -0.182, -0.772, -0.632, 192.0, 0.0, 0.0, 0.0, 0.0, 0.0, 0.0, 0.0, 0.0, 0.0, 1.6776148853182817E9, 0.0, 2023-02-28 12:08:05.318
213.0, 26475.976583478045, -4291.624342396777, 14669.963976140498, -3137.782590124916, 14902.623284175788, 7444.449656540115, -187500.02235174447, -187500.02235174447, -0.182, -0.772, -0.632, 192.0, 0.0, 0.0, 0.0, 0.0, 0.0, 0.0, 0.0, 0.0, 0.0, 1.6776148853223572E9, 0.0, 2023-02-28 12:08:05.322
214.0, 26603.090954195377, -4295.737063376554, 15502.87938152306, -3144.130485550223, 15337.007085920226, 7780.306968725559, -187500.02235174447, -187500.02235174447, -0.182, -0.772, -0.632, 192.0, 0.0, 0.0, 0.0, 0.0, 0.0, 0.0, 0.0, 0.0, 0.0, 1.677614885327299E9, 0.0, 2023-02-28 12:08:05.327
215.0, 26565.11534036581, -4291.892563330241, 15384.57159812112, -3136.0838575463126, 15283.139381782936, 7641.390876935826, -187500.02235174447, -187500.02235174447, -0.182, -0.772, -0.632, 192.0, 0.0, 0.0, 0.0, 0.0, 0.0, 0.0, 0.0, 0.0, 0.0, 1.6776148853313005E9, 0.0, 2023-02-28 12:08:05.331
216.0, 26428.724995699526, -4289.23270574006, 14545.531814757804, -3128.6183748982403, 14844.262879402982, 7295.229410556485, -187500.02235174447, -187500.02235174447, -0.182, -0.772, -0.632, 192.0, 0.0, 0.0, 0.0, 0.0, 0.0, 0.0, 0.0, 0.0, 0.0, 1.6776148853353112E9, 0.0, 2023-02-28 12:08:05.335
217.0, 26455.591792534804, -4291.691397630143, 14551.902061927565, -3134.7427528789945, 14841.021876456962, 7387.7209291125455, -187500.02235174447, -187500.02235174447, -0.182, -0.772, -0.632, 192.0, 0.0, 0.0, 0.0, 0.0, 0.0, 0.0, 0.0, 0.0, 0.0, 1.677614885339336E9, 0.0, 2023-02-28 12:08:05.339
218.0, 26598.41943960422, -4294.2394964980485, 15392.215894724834, -3143.661098916662, 15278.780791614152, 7751.808494545043, -187500.02235174447, -187500.02235174447, -0.182, -0.772, -0.632, 192.0, 0.0, 0.0, 0.0, 0.0, 0.0, 0.0, 0.0, 0.0, 0.0, 1.6776148853433266E9, 0.0, 2023-02-28 12:08:05.343
219.0, 26590.730439511593, -4295.13356627626, 15500.823021033171, -3139.436619214609, 15343.265574367711, 7702.657008487822, -187500.02235174447, -187500.02235174447, -0.186, -0.764, -0.636, 192.0, 250.0, 48.0, 232.0, 32.0, 236.0, 32.0, 0.0, 0.0, 0.0, 1.6776148853463275E9, 0.0, 2023-02-28 12:08:05.346
220.0, 26447.27694359743, -4293.256019742014, 14671.886226163653, -3130.652383643673, 14910.915781368707, 7335.7084197650465, -187500.02235174447, -187500.02235174447, -0.186, -0.764, -0.636, 192.0, 0.0, 0.0, 0.0, 0.0, 0.0, 0.0, 0.0, 0.0, 0.0, 1.6776148853503826E9, 0.0, 2023-02-28 12:08:05.350
221.0, 26435.877553925224, -4294.03833079795, 14461.735124794857, -3134.586290667807, 14794.038509611906, 7337.429504088105, -187500.02235174447, -187500.02235174447, -0.186, -0.764, -0.636, 192.0, 0.0, 0.0, 0.0, 0.0, 0.0, 0.0, 0.0, 0.0, 0.0, 1.6776148853553925E9, 0.0, 2023-02-28 12:08:05.355
222.0, 26581.700334751647, -4295.044159298439, 15254.372686668956, -3143.236415772011, 15209.333921591511, 7699.684226475267, -187500.02235174447, -187500.02235174447, -0.186, -0.764, -0.636, 192.0, 0.0, 0.0, 0.0, 0.0, 0.0, 0.0, 0.0, 0.0, 0.0, 1.6776148853593228E9, 0.0, 2023-02-28 12:08:05.359
223.0, 26619.877114281313, -4292.585467408356, 15578.115353359623, -3139.213101770056, 15387.90200804496, 7749.528616610601, -187500.02235174447, -187500.02235174447, -0.186, -0.764, -0.636, 192.0, 0.0, 0.0, 0.0, 0.0, 0.0, 0.0, 0.0, 0.0, 0.0, 1.6776148853633764E9, 0.0, 2023-02-28 12:08:05.363
224.0, 26477.94353699011, -4290.305589473915, 14816.591419767312, -3128.461912687053, 14993.30431143097, 7391.297208225395, -187500.02235174447, -187500.02235174447, -0.186, -0.764, -0.636, 192.0, 0.0, 0.0, 0.0, 0.0, 0.0, 0.0, 0.0, 0.0, 0.0, 1.6776148853674195E9, 0.0, 2023-02-28 12:08:05.367
225.0, 26432.100109112278, -4289.880906329263, 14403.844106655612, -3130.5182731769414, 14768.713983144044, 7300.035035614376, -187500.02235174447, -187500.02235174447, -0.186, -0.764, -0.636, 192.0, 0.0, 0.0, 0.0, 0.0, 0.0, 0.0, 0.0, 0.0, 0.0, 1.6776148853713863E9, 0.0, 2023-02-28 12:08:05.371
226.0, 26561.717875208604, -4292.339598219347, 15096.569370814488, -3141.3588692377652, 15126.163080473314, 7641.681449613745, -187500.02235174447, -187500.02235174447, -0.186, -0.764, -0.636, 192.0, 0.0, 0.0, 0.0, 0.0, 0.0, 0.0, 0.0, 0.0, 0.0, 1.6776148853743527E9, 0.0, 2023-02-28 12:08:05.374
227.0, 26629.913047541744, -4292.496060430534, 15616.627409056116, -3141.3141657488545, 15404.107022775057, 7788.152431029372, -187500.02235174447, -187500.02235174447, -0.186, -0.764, -0.636, 192.0, 0.0, 0.0, 0.0, 0.0, 0.0, 0.0, 0.0, 0.0, 0.0, 1.6776148853783488E9, 0.0, 2023-02-28 12:08:05.378
228.0, 26507.269025715475, -4289.344464462336, 14974.282976899503, -3130.786494110405, 15070.753105968608, 7459.067697413886, -187500.02235174447, -187500.02235174447, -0.186, -0.764, -0.636, 192.0, 0.0, 0.0, 0.0, 0.0, 0.0, 0.0, 0.0, 0.0, 0.0, 1.6776148853833494E9, 0.0, 2023-02-28 12:08:05.383
229.0, 26429.48495501101, -4286.662255127699, 14387.46027796987, -3129.020706298436, 14761.44966619607, 7279.002044081932, -187500.02235174447, -187500.02235174447, -0.186, -0.764, -0.636, 192.0, 0.0, 0.0, 0.0, 0.0, 0.0, 0.0, 0.0, 0.0, 0.0, 1.6776148853873703E9, 0.0, 2023-02-28 12:08:05.387
230.0, 26540.05903483141, -4286.505792916512, 14935.167424102716, -3137.7155348915503, 15044.869785889363, 7577.889570938298, -187500.02235174447, -187500.02235174447, -0.178, -0.766, -0.63, 192.0, 250.0, 112.0, 232.0, 16.0, 236.0, 80.0, 0.0, 0.0, 0.0, 1.6776148853913713E9, 0.0, 2023-02-28 12:08:05.391
231.0, 26634.204582477163, -4290.0150167959955, 15614.749862521872, -3141.33651749331, 15403.99526405278, 7806.302047527081, -187500.02235174447, -187500.02235174447, -0.178, -0.766, -0.63, 192.0, 0.0, 0.0, 0.0, 0.0, 0.0, 0.0, 0.0, 0.0, 0.0, 1.6776148853943684E9, 0.0, 2023-02-28 12:08:05.394
232.0, 26550.430244258674, -4283.935342304152, 15133.315638699012, -3130.8088458548605, 15156.874377354907, 7528.492215692069, -187500.02235174447, -187500.02235174447, -0.178, -0.766, -0.63, 192.0, 0.0, 0.0, 0.0, 0.0, 0.0, 0.0, 0.0, 0.0, 0.0, 1.6776148853983889E9, 0.0, 2023-02-28 12:08:05.398
233.0, 26440.169088860643, -4282.616589381289, 14411.8013276817, -3127.433732442109, 14777.766439648443, 7270.888360844656, -187500.02235174447, -187500.02235174447, -0.178, -0.766, -0.63, 192.0, 0.0, 0.0, 0.0, 0.0, 0.0, 0.0, 0.0, 0.0, 0.0, 1.6776148854023898E9, 0.0, 2023-02-28 12:08:05.402
234.0, 26515.360357208298, -4287.936304561652, 14787.668262442145, -3137.3802587247205, 14964.492912828078, 7508.018017771008, -187500.02235174447, -187500.02235174447, -0.178, -0.766, -0.63, 192.0, 0.0, 0.0, 0.0, 0.0, 0.0, 0.0, 0.0, 0.0, 0.0, 1.6776148854064083E9, 0.0, 2023-02-28 12:08:05.406
235.0, 26632.394091176284, -4291.959618563606, 15575.679013213994, -3144.7339826505167, 15373.932167760393, 7804.424500992835, -187500.02235174447, -187500.02235174447, -0.178, -0.766, -0.63, 192.0, 0.0, 0.0, 0.0, 0.0, 0.0, 0.0, 0.0, 0.0, 0.0, 1.677614885411389E9, 0.0, 2023-02-28 12:08:05.411
236.0, 26564.0201048875, -4291.400824952224, 15291.320120253578, -3136.910872091159, 15229.718712534752, 7596.083890924918, -187500.02235174447, -187500.02235174447, -0.178, -0.766, -0.63, 192.0, 0.0, 0.0, 0.0, 0.0, 0.0, 0.0, 0.0, 0.0, 0.0, 1.677614885415412E9, 0.0, 2023-02-28 12:08:05.415
237.0, 26438.068024881846, -4290.551458662922, 14480.979976770876, -3131.054715043869, 14802.934503905119, 7279.806706882323, -187500.02235174447, -187500.02235174447, -0.178, -0.766, -0.63, 192.0, 0.0, 0.0, 0.0, 0.0, 0.0, 0.0, 0.0, 0.0, 0.0, 1.6776148854194474E9, 0.0, 2023-02-28 12:08:05.419
238.0, 26482.503292858994, -4294.641827898244, 14650.920289864576, -3139.503674447975, 14884.294853722437, 7439.398162293215, -187500.02235174447, -187500.02235174447, -0.178, -0.766, -0.63, 192.0, 0.0, 0.0, 0.0, 0.0, 0.0, 0.0, 0.0, 0.0, 0.0, 1.677614885422412E9, 0.0, 2023-02-28 12:08:05.422
239.0, 26616.70316656866, -4298.218107011093, 15489.11070693859, -3146.8573983737706, 15322.165527601903, 7779.569361158534, -187500.02235174447, -187500.02235174447, -0.178, -0.766, -0.63, 192.0, 0.0, 0.0, 0.0, 0.0, 0.0, 0.0, 0.0, 0.0, 0.0, 1.677614885426422E9, 0.0, 2023-02-28 12:08:05.426
240.0, 26598.687660537682, -4291.356121463314, 15421.608438683563, -3138.6096046697626, 15298.115050567993, 7659.808714366998, -187500.02235174447, -187500.02235174447, -0.182, -0.77, -0.628, 192.0, 250.0, 80.0, 231.0, 240.0, 236.0, 96.0, 0.0, 0.0, 0.0, 1.6776148854303992E9, 0.0, 2023-02-28 12:08:05.430
241.0, 26464.33132461683, -4283.555362648412, 14580.422887852537, -3129.177168509623, 14860.758466810998, 7310.808576441834, -187500.02235174447, -187500.02235174447, -0.182, -0.77, -0.628, 192.0, 0.0, 0.0, 0.0, 0.0, 0.0, 0.0, 0.0, 0.0, 0.0, 1.6776148854344788E9, 0.0, 2023-02-28 12:08:05.434
242.0, 26470.835682253324, -4285.544667904934, 14535.250012308361, -3135.52506393493, 14828.84017572882, 7384.770498844445, -187500.02235174447, -187500.02235174447, -0.182, -0.77, -0.628, 192.0, 0.0, 0.0, 0.0, 0.0, 0.0, 0.0, 0.0, 0.0, 0.0, 1.6776148854384353E9, 0.0, 2023-02-28 12:08:05.438
243.0, 26615.585579345894, -4286.192868494138, 15366.198464178857, -3144.041078572402, 15267.78373334214, 7745.952337497752, -187500.02235174447, -187500.02235174447, -0.182, -0.77, -0.628, 192.0, 0.0, 0.0, 0.0, 0.0, 0.0, 0.0, 0.0, 0.0, 0.0, 1.6776148854434736E9, 0.0, 2023-02-28 12:08:05.443
244.0, 26627.342596929386, -4282.236609725548, 15521.45368116542, -3138.0508110583796, 15357.838911752573, 7720.024313929595, -187500.02235174447, -187500.02235174447, -0.182, -0.77, -0.628, 192.0, 0.0, 0.0, 0.0, 0.0, 0.0, 0.0, 0.0, 0.0, 0.0, 1.6776148854476056E9, 0.0, 2023-02-28 12:08:05.447
245.0, 26488.24769118401, -4278.146240490227, 14704.229200390482, -3127.1878632531007, 14934.541575257967, 7356.6073008307585, -187500.02235174447, -187500.02235174447, -0.182, -0.77, -0.628, 192.0, 0.0, 0.0, 0.0, 0.0, 0.0, 0.0, 0.0, 0.0, 0.0, 1.6776148854504893E9, 0.0, 2023-02-28 12:08:05.450
246.0, 26460.129196659233, -4280.381414935758, 14448.14526416603, -3131.5464534218854, 14792.295073544394, 7335.8872337206885, -187500.02235174447, -187500.02235174447, -0.182, -0.77, -0.628, 192.0, 0.0, 0.0, 0.0, 0.0, 0.0, 0.0, 0.0, 0.0, 0.0, 1.677614885454451E9, 0.0, 2023-02-28 12:08:05.454
247.0, 26594.150256413253, -4283.734176604054, 15220.733311263719, -3141.9847180825136, 15192.748927205674, 7696.890258418353, -187500.02235174447, -187500.02235174447, -0.182, -0.77, -0.628, 192.0, 0.0, 0.0, 0.0, 0.0, 0.0, 0.0, 0.0, 0.0, 0.0, 1.677614885458455E9, 0.0, 2023-02-28 12:08:05.458
248.0, 26640.8877540693, -4281.566057391889, 15588.866542442625, -3139.3919157256983, 15393.154667991957, 7769.0863930089945, -187500.02235174447, -187500.02235174447, -0.182, -0.77, -0.628, 192.0, 0.0, 0.0, 0.0, 0.0, 0.0, 0.0, 0.0, 0.0, 0.0, 1.6776148854624586E9, 0.0, 2023-02-28 12:08:05.462
249.0, 26503.648043113717, -4282.616589381289, 14852.197748684615, -3129.847720843282, 15011.766852351053, 7412.41960673566, -187500.02235174447, -187500.02235174447, -0.182, -0.77, -0.628, 192.0, 0.0, 0.0, 0.0, 0.0, 0.0, 0.0, 0.0, 0.0, 0.0, 1.677614885466506E9, 0.0, 2023-02-28 12:08:05.466
250.0, 26438.85033593778, -4287.958656306107, 14401.22895255434, -3133.0663720448465, 14768.579872677312, 7296.078776845787, -187500.02235174447, -187500.02235174447, -0.182, -0.768, -0.632, 192.0, 250.0, 80.0, 232.0, 0.0, 236.0, 64.0, 0.0, 0.0, 0.0, 1.6776148854715016E9, 0.0, 2023-02-28 12:08:05.471
251.0, 26559.996790885543, -4292.294894730437, 15063.913472165284, -3144.421058228142, 15111.075652965983, 7628.382161662837, -187500.02235174447, -187500.02235174447, -0.182, -0.768, -0.632, 192.0, 0.0, 0.0, 0.0, 0.0, 0.0, 0.0, 0.0, 0.0, 0.0, 1.6776148854754815E9, 0.0, 2023-02-28 12:08:05.475
252.0, 26640.530126158017, -4292.719577875087, 15622.528269592318, -3145.33747975081, 15408.689130388395, 7789.538239185601, -187500.02235174447, -187500.02235174447, -0.182, -0.768, -0.632, 192.0, 0.0, 0.0, 0.0, 0.0, 0.0, 0.0, 0.0, 0.0, 0.0, 1.6776148854784746E9, 0.0, 2023-02-28 12:08:05.478
253.0, 26526.312711991395, -4290.864383085297, 15016.706587875677, -3134.854511601271, 15095.563542314, 7466.622587039779, -187500.02235174447, -187500.02235174447, -0.182, -0.768, -0.632, 192.0, 0.0, 0.0, 0.0, 0.0, 0.0, 0.0, 0.0, 0.0, 0.0, 1.6776148854824924E9, 0.0, 2023-02-28 12:08:05.482
254.0, 26427.56270498785, -4293.859516842308, 14398.703205430891, -3134.2510145009774, 14767.6858028991, 7267.826171854279, -187500.02235174447, -187500.02235174447, -0.182, -0.768, -0.632, 192.0, 0.0, 0.0, 0.0, 0.0, 0.0, 0.0, 0.0, 0.0, 0.0, 1.6776148854866388E9, 0.0, 2023-02-28 12:08:05.486
255.0, 26531.140688793745, -4298.106348288817, 14908.5688482009, -3145.00220358398, 15026.742521136108, 7553.727335182111, -187500.02235174447, -187500.02235174447, -0.182, -0.768, -0.632, 192.0, 0.0, 0.0, 0.0, 0.0, 0.0, 0.0, 0.0, 0.0, 0.0, 1.6776148854908953E9, 0.0, 2023-02-28 12:08:05.490
0.0, 26635.79155633349, -4301.0567785569165, 15615.576877066718, -3149.4725524750415, 15398.295569216678, 7797.271942767137, -187500.02235174447, -187500.02235174447, -0.182, -0.768, -0.632, 192.0, 0.0, 0.0, 0.0, 0.0, 0.0, 0.0, 0.0, 0.0, 0.0, 1.6776148854945357E9, 0.0, 2023-02-28 12:08:05.494
1.0, 26533.554677194916, -4303.2248977690815, 15176.610967708943, -3140.397744226187, 15171.447714739767, 7531.867329104821, -187500.02235174447, -187500.02235174447, -0.182, -0.768, -0.632, 192.0, 0.0, 0.0, 0.0, 0.0, 0.0, 0.0, 0.0, 0.0, 0.0, 1.6776148854995503E9, 0.0, 2023-02-28 12:08:05.499
2.0, 26421.37127177373, -4304.476595458579, 14432.47669130286, -3137.0002790689805, 14776.514741958947, 7261.433572940061, -187500.02235174447, -187500.02235174447, -0.182, -0.768, -0.632, 192.0, 0.0, 0.0, 0.0, 0.0, 0.0, 0.0, 0.0, 0.0, 0.0, 1.6776148855035155E9, 0.0, 2023-02-28 12:08:05.503
3.0, 26497.993051766523, -4305.951810592629, 14756.129951015706, -3145.8962733621925, 14937.268488081514, 7481.57590408038, -187500.02235174447, -187500.02235174447, -0.182, -0.768, -0.632, 192.0, 0.0, 0.0, 0.0, 0.0, 0.0, 0.0, 0.0, 0.0, 0.0, 1.677614885506497E9, 0.0, 2023-02-28 12:08:05.506
4.0, 26618.893637525278, -4309.013999583006, 15557.574100205196, -3151.975947854036, 15358.621222808508, 7789.940570585796, -187500.02235174447, -187500.02235174447, -0.182, -0.774, -0.632, 192.0, 250.0, 80.0, 231.0, 208.0, 236.0, 64.0, 0.0, 0.0, 0.0, 1.6776148855105648E9, 0.0, 2023-02-28 12:08:05.510
5.0, 26547.166889568198, -4309.550441449934, 15319.79624268964, -3143.14700879419, 15244.537919108621, 7598.766100259555, -187500.02235174447, -187500.02235174447, -0.182, -0.774, -0.632, 192.0, 0.0, 0.0, 0.0, 0.0, 0.0, 0.0, 0.0, 0.0, 0.0, 1.677614885514577E9, 0.0, 2023-02-28 12:08:05.514
6.0, 26417.0350333494, -4306.532955948467, 14498.123764768097, -3136.039154057402, 14813.26100984347, 7273.995253323943, -187500.02235174447, -187500.02235174447, -0.182, -0.774, -0.632, 192.0, 0.0, 0.0, 0.0, 0.0, 0.0, 0.0, 0.0, 0.0, 0.0, 1.6776148855186422E9, 0.0, 2023-02-28 12:08:05.518
7.0, 26468.265231640966, -4306.778825137475, 14620.387806938626, -3143.750505894483, 14869.050964003918, 7416.688789926624, -187500.02235174447, -187500.02235174447, -0.182, -0.774, -0.632, 192.0, 0.0, 0.0, 0.0, 0.0, 0.0, 0.0, 0.0, 0.0, 0.0, 1.6776148855226285E9, 0.0, 2023-02-28 12:08:05.522
8.0, 26606.711936797135, -4307.896412360241, 15462.668593247963, -3151.5736164538407, 15311.570800730087, 7767.700584852766, -187500.02235174447, -187500.02235174447, -0.182, -0.774, -0.632, 192.0, 0.0, 0.0, 0.0, 0.0, 0.0, 0.0, 0.0, 0.0, 0.0, 1.6776148855265856E9, 0.0, 2023-02-28 12:08:05.526
9.0, 26582.16972138521, -4305.66123791471, 15445.01071512827, -3144.3540029947762, 15310.766137929695, 7667.6094731819, -187500.02235174447, -187500.02235174447, -0.182, -0.774, -0.632, 192.0, 0.0, 0.0, 0.0, 0.0, 0.0, 0.0, 0.0, 0.0, 0.0, 1.6776148855315905E9, 0.0, 2023-02-28 12:08:05.531
10.0, 26439.453833038075, -4303.627229169278, 14604.026329997341, -3135.972098824036, 14870.414420415691, 7309.690989219069, -187500.02235174447, -187500.02235174447, -0.182, -0.774, -0.632, 192.0, 0.0, 0.0, 0.0, 0.0, 0.0, 0.0, 0.0, 0.0, 0.0, 1.6776148855346715E9, 0.0, 2023-02-28 12:08:05.534
11.0, 26449.154490131677, -4302.397883224236, 14511.333645741182, -3140.8894826042037, 14816.300847089393, 7363.31282416735, -187500.02235174447, -187500.02235174447, -0.182, -0.774, -0.632, 192.0, 0.0, 0.0, 0.0, 0.0, 0.0, 0.0, 0.0, 0.0, 0.0, 1.6776148855386524E9, 0.0, 2023-02-28 12:08:05.538
12.0, 26602.330994883898, -4300.2297640120705, 15332.447330051344, -3148.1090960632678, 15249.365895910967, 7727.333334366481, -187500.02235174447, -187500.02235174447, -0.182, -0.774, -0.632, 192.0, 0.0, 0.0, 0.0, 0.0, 0.0, 0.0, 0.0, 0.0, 0.0, 1.677614885542656E9, 0.0, 2023-02-28 12:08:05.542
13.0, 26613.864495022834, -4297.905182588718, 15536.049370294735, -3143.0576018163683, 15365.214987422823, 7723.95822095373, -187500.02235174447, -187500.02235174447, -0.182, -0.774, -0.632, 192.0, 0.0, 0.0, 0.0, 0.0, 0.0, 0.0, 0.0, 0.0, 0.0, 1.6776148855465703E9, 0.0, 2023-02-28 12:08:05.546
14.0, 26467.773493262946, -4296.877002343775, 14732.951192015553, -3132.6416889001953, 14947.952621931152, 7358.283681664906, -187500.02235174447, -187500.02235174447, -0.178, -0.772, -0.63, 192.0, 250.0, 112.0, 231.0, 224.0, 236.0, 80.0, 0.0, 0.0, 0.0, 1.6776148855507064E9, 0.0, 2023-02-28 12:08:05.550
15.0, 26438.068024881846, -4297.391092466247, 14431.090883146631, -3136.0615058018575, 14783.108506573262, 7317.089416633776, -187500.02235174447, -187500.02235174447, -0.178, -0.772, -0.63, 192.0, 0.0, 0.0, 0.0, 0.0, 0.0, 0.0, 0.0, 0.0, 0.0, 1.6776148855545864E9, 0.0, 2023-02-28 12:08:05.554
16.0, 26576.02299166, -4298.396920966736, 15183.070621856526, -3146.879750118226, 15173.772296163119, 7672.750374406622, -187500.02235174447, -187500.02235174447, -0.178, -0.772, -0.63, 192.0, 0.0, 0.0, 0.0, 0.0, 0.0, 0.0, 0.0, 0.0, 0.0, 1.6776148855596101E9, 0.0, 2023-02-28 12:08:05.559
17.0, 26628.996626019078, -4297.346388977336, 15596.555542535252, -3145.8739216177373, 15398.384976194498, 7765.1524859848605, -187500.02235174447, -187500.02235174447, -0.178, -0.772, -0.63, 192.0, 0.0, 0.0, 0.0, 0.0, 0.0, 0.0, 0.0, 0.0, 0.0, 1.6776148855625646E9, 0.0, 2023-02-28 12:08:05.562
18.0, 26497.948348277612, -4293.65835114221, 14884.786592100454, -3134.206311012067, 15029.78235838203, 7417.404045749194, -187500.02235174447, -187500.02235174447, -0.178, -0.772, -0.63, 192.0, 0.0, 0.0, 0.0, 0.0, 0.0, 0.0, 0.0, 0.0, 0.0, 1.6776148855666187E9, 0.0, 2023-02-28 12:08:05.566
19.0, 26427.00391137647, -4297.99458956654, 14390.56717044916, -3135.592119168296, 14763.126047030217, 7280.7678318939015, -187500.02235174447, -187500.02235174447, -0.178, -0.772, -0.63, 192.0, 0.0, 0.0, 0.0, 0.0, 0.0, 0.0, 0.0, 0.0, 0.0, 1.6776148855705793E9, 0.0, 2023-02-28 12:08:05.570
20.0, 26556.576973983883, -4298.553383177922, 15022.965076323162, -3145.404534984176, 15089.528571311066, 7606.7233212856445, -187500.02235174447, -187500.02235174447, -0.178, -0.772, -0.63, 192.0, 0.0, 0.0, 0.0, 0.0, 0.0, 0.0, 0.0, 0.0, 0.0, 1.6776148855746062E9, 0.0, 2023-02-28 12:08:05.574
21.0, 26637.89262031229, -4299.335694233858, 15617.1862026675, -3146.343308251299, 15410.320807733633, 7791.505192697668, -187500.02235174447, -187500.02235174447, -0.178, -0.772, -0.63, 192.0, 0.0, 0.0, 0.0, 0.0, 0.0, 0.0, 0.0, 0.0, 0.0, 1.6776148855786524E9, 0.0, 2023-02-28 12:08:05.578
22.0, 26512.320519962374, -4299.603915167322, 15043.193405055215, -3136.4414854575975, 15113.824917533984, 7481.173572680184, -187500.02235174447, -187500.02235174447, -0.178, -0.772, -0.63, 192.0, 0.0, 0.0, 0.0, 0.0, 0.0, 0.0, 0.0, 0.0, 0.0, 1.677614885582621E9, 0.0, 2023-02-28 12:08:05.582
23.0, 26424.724033442028, -4299.380397722769, 14390.298949515696, -3135.4133052126535, 14764.847131353275, 7266.48506718696, -187500.02235174447, -187500.02235174447, -0.178, -0.772, -0.63, 192.0, 0.0, 0.0, 0.0, 0.0, 0.0, 0.0, 0.0, 0.0, 0.0, 1.6776148855866067E9, 0.0, 2023-02-28 12:08:05.586
24.0, 26517.595531653827, -4305.147147792238, 14863.440676145636, -3146.633880929218, 15003.49670690259, 7538.7516663970555, -187500.02235174447, -187500.02235174447, -0.176, -0.768, -0.628, 192.0, 250.0, 128.0, 232.0, 0.0, 236.0, 96.0, 0.0, 0.0, 0.0, 1.6776148855895944E9, 0.0, 2023-02-28 12:08:05.589
25.0, 26623.296931182973, -4309.058703071917, 15595.840286712682, -3151.595968198296, 15386.940883033381, 7799.440061979301, -187500.02235174447, -187500.02235174447, -0.176, -0.768, -0.628, 192.0, 0.0, 0.0, 0.0, 0.0, 0.0, 0.0, 0.0, 0.0, 0.0, 1.6776148855946236E9, 0.0, 2023-02-28 12:08:05.594
26.0, 26544.797604655934, -4304.700112903132, 15198.359215063956, -3141.0012413264803, 15185.305796302056, 7553.392059015282, -187500.02235174447, -187500.02235174447, -0.176, -0.768, -0.628, 192.0, 0.0, 0.0, 0.0, 0.0, 0.0, 0.0, 0.0, 0.0, 0.0, 1.677614885598596E9, 0.0, 2023-02-28 12:08:05.598
27.0, 26422.377100274218, -4305.907107103719, 14429.928592434955, -3136.9555755800698, 14780.023965838429, 7266.753288120424, -187500.02235174447, -187500.02235174447, -0.176, -0.768, -0.628, 192.0, 0.0, 0.0, 0.0, 0.0, 0.0, 0.0, 0.0, 0.0, 0.0, 1.6776148856026769E9, 0.0, 2023-02-28 12:08:05.602
28.0, 26476.177749178143, -4312.344409506847, 14719.495441853458, -3147.103267562779, 14921.912839640718, 7469.684776030157, -187500.02235174447, -187500.02235174447, -0.176, -0.768, -0.628, 192.0, 0.0, 0.0, 0.0, 0.0, 0.0, 0.0, 0.0, 0.0, 0.0, 1.6776148856066277E9, 0.0, 2023-02-28 12:08:05.606
29.0, 26607.40484087525, -4312.858499629319, 15535.579983661173, -3153.4064594991755, 15348.51823431471, 7788.666521151844, -187500.02235174447, -187500.02235174447, -0.176, -0.768, -0.628, 192.0, 0.0, 0.0, 0.0, 0.0, 0.0, 0.0, 0.0, 0.0, 0.0, 1.6776148856106448E9, 0.0, 2023-02-28 12:08:05.610
30.0, 26557.515747251007, -4310.176290294682, 15344.494920312754, -3145.6057006842734, 15258.373648926456, 7615.149928945295, -187500.02235174447, -187500.02235174447, -0.176, -0.768, -0.628, 192.0, 0.0, 0.0, 0.0, 0.0, 0.0, 0.0, 0.0, 0.0, 0.0, 1.6776148856146324E9, 0.0, 2023-02-28 12:08:05.614
31.0, 26418.46554499454, -4310.779787394976, 14513.948799842454, -3139.548377936885, 14825.442710571613, 7277.862105114711, -187500.02235174447, -187500.02235174447, -0.176, -0.768, -0.628, 192.0, 0.0, 0.0, 0.0, 0.0, 0.0, 0.0, 0.0, 0.0, 0.0, 1.6776148856176472E9, 0.0, 2023-02-28 12:08:05.617
32.0, 26462.856109482782, -4311.003304839529, 14588.17894317853, -3147.080915818324, 14858.433885387647, 7400.014388562965, -187500.02235174447, -187500.02235174447, -0.176, -0.768, -0.628, 192.0, 0.0, 0.0, 0.0, 0.0, 0.0, 0.0, 0.0, 0.0, 0.0, 1.6776148856226985E9, 0.0, 2023-02-28 12:08:05.622
33.0, 26595.424305847206, -4313.372589751791, 15429.632714943018, -3154.3228810218434, 15300.059652335603, 7754.2895381795815, -187500.02235174447, -187500.02235174447, -0.176, -0.768, -0.628, 192.0, 0.0, 0.0, 0.0, 0.0, 0.0, 0.0, 0.0, 0.0, 0.0, 1.6776148856267047E9, 0.0, 2023-02-28 12:08:05.626
34.0, 26575.531253281984, -4313.819624640897, 15461.238081602824, -3148.198503041089, 15324.84773693654, 7673.7562029071105, -187500.02235174447, -187500.02235174447, -0.176, -0.766, -0.628, 192.0, 250.0, 128.0, 232.0, 16.0, 236.0, 96.0, 0.0, 0.0, 0.0, 1.677614885630776E9, 0.0, 2023-02-28 12:08:05.630
35.0, 26440.14673711619, -4309.952772850129, 14624.098196518207, -3138.229625014022, 14888.452278191124, 7314.16133811013, -187500.02235174447, -187500.02235174447, -0.176, -0.766, -0.628, 192.0, 0.0, 0.0, 0.0, 0.0, 0.0, 0.0, 0.0, 0.0, 0.0, 1.6776148856346853E9, 0.0, 2023-02-28 12:08:05.634
36.0, 26446.69579824159, -4309.28222051647, 14485.673843106491, -3143.4822849610196, 14808.50008827449, 7347.599547815269, -187500.02235174447, -187500.02235174447, -0.176, -0.766, -0.628, 192.0, 0.0, 0.0, 0.0, 0.0, 0.0, 0.0, 0.0, 0.0, 0.0, 1.6776148856386447E9, 0.0, 2023-02-28 12:08:05.638
37.0, 26582.460294063127, -4311.539746706456, 15299.322044768578, -3152.221817043044, 15233.004418969682, 7712.759996981621, -187500.02235174447, -187500.02235174447, -0.176, -0.766, -0.628, 192.0, 0.0, 0.0, 0.0, 0.0, 0.0, 0.0, 0.0, 0.0, 0.0, 1.6776148856426475E9, 0.0, 2023-02-28 12:08:05.642
38.0, 26601.235759405587, -4310.556269950423, 15553.41667573651, -3147.8632268742595, 15373.440429382377, 7728.920308222808, -187500.02235174447, -187500.02235174447, -0.176, -0.766, -0.628, 192.0, 0.0, 0.0, 0.0, 0.0, 0.0, 0.0, 0.0, 0.0, 0.0, 1.6776148856456473E9, 0.0, 2023-02-28 12:08:05.645
39.0, 26463.77253100545, -4309.706903661121, 14768.468113955036, -3139.5707296813407, 14965.588148306388, 7365.905626524166, -187500.02235174447, -187500.02235174447, -0.176, -0.766, -0.628, 192.0, 0.0, 0.0, 0.0, 0.0, 0.0, 0.0, 0.0, 0.0, 0.0, 1.677614885650767E9, 0.0, 2023-02-28 12:08:05.650
40.0, 26422.980597374513, -4312.992610096051, 14419.937362663433, -3143.683450661117, 14775.710079158554, 7301.286733303873, -187500.02235174447, -187500.02235174447, -0.176, -0.766, -0.628, 192.0, 0.0, 0.0, 0.0, 0.0, 0.0, 0.0, 0.0, 0.0, 0.0, 1.6776148856546617E9, 0.0, 2023-02-28 12:08:05.654
41.0, 26553.82770941588, -4314.266659530003, 15145.251470238147, -3152.333575765321, 15149.364191217923, 7651.829141596454, -187500.02235174447, -187500.02235174447, -0.176, -0.766, -0.628, 192.0, 0.0, 0.0, 0.0, 0.0, 0.0, 0.0, 0.0, 0.0, 0.0, 1.6776148856586688E9, 0.0, 2023-02-28 12:08:05.658
42.0, 26612.45633512215, -4311.629153684277, 15603.350472849665, -3150.4560292310753, 15402.43064194091, 7764.72780284021, -187500.02235174447, -187500.02235174447, -0.176, -0.766, -0.628, 192.0, 0.0, 0.0, 0.0, 0.0, 0.0, 0.0, 0.0, 0.0, 0.0, 1.6776148856626868E9, 0.0, 2023-02-28 12:08:05.662
43.0, 26486.660717327683, -4309.103406560827, 14919.878830895286, -3139.7718953814383, 15055.106884849893, 7422.209670807085, -187500.02235174447, -187500.02235174447, -0.176, -0.766, -0.628, 192.0, 0.0, 0.0, 0.0, 0.0, 0.0, 0.0, 0.0, 0.0, 0.0, 1.6776148856677473E9, 0.0, 2023-02-28 12:08:05.667
44.0, 26414.46458273704, -4309.148110049738, 14388.354347748083, -3139.90600584817, 14770.457419211558, 7270.530732933371, -187500.02235174447, -187500.02235174447, -0.176, -0.768, -0.632, 192.0, 250.0, 128.0, 232.0, 0.0, 236.0, 64.0, 0.0, 0.0, 0.0, 1.6776148856707668E9, 0.0, 2023-02-28 12:08:05.670
45.0, 26533.44291847264, -4307.807005382419, 14986.285863672003, -3149.204331541578, 15076.899835693817, 7584.997425675086, -187500.02235174447, -187500.02235174447, -0.176, -0.768, -0.632, 192.0, 0.0, 0.0, 0.0, 0.0, 0.0, 0.0, 0.0, 0.0, 0.0, 1.6776148856736948E9, 0.0, 2023-02-28 12:08:05.673
46.0, 26615.36206190134, -4307.225860026581, 15616.292132889288, -3150.858360631271, 15410.656083900463, 7791.236971764204, -187500.02235174447, -187500.02235174447, -0.176, -0.768, -0.632, 192.0, 0.0, 0.0, 0.0, 0.0, 0.0, 0.0, 0.0, 0.0, 0.0, 1.6776148856786945E9, 0.0, 2023-02-28 12:08:05.678
47.0, 26507.134915248742, -4305.571830936889, 15078.039774661038, -3140.5095029484637, 15133.337990443468, 7494.495212375547, -187500.02235174447, -187500.02235174447, -0.176, -0.768, -0.632, 192.0, 0.0, 0.0, 0.0, 0.0, 0.0, 0.0, 0.0, 0.0, 0.0, 1.6776148856827617E9, 0.0, 2023-02-28 12:08:05.682
48.0, 26406.909693111145, -4306.935287348662, 14397.071528085653, -3138.0284593139245, 14772.290262256893, 7260.718317117491, -187500.02235174447, -187500.02235174447, -0.176, -0.768, -0.632, 192.0, 0.0, 0.0, 0.0, 0.0, 0.0, 0.0, 0.0, 0.0, 0.0, 1.677614885686741E9, 0.0, 2023-02-28 12:08:05.686
49.0, 26493.14272321972, -4311.629153684277, 14825.08508266033, -3147.5055989629745, 14987.604616594866, 7518.098654520351, -187500.02235174447, -187500.02235174447, -0.176, -0.768, -0.632, 192.0, 0.0, 0.0, 0.0, 0.0, 0.0, 0.0, 0.0, 0.0, 0.0, 1.6776148856907535E9, 0.0, 2023-02-28 12:08:05.690
50.0, 26607.136619941786, -4314.825453141386, 15582.764516206327, -3151.841837387304, 15387.164400477935, 7798.92597185683, -187500.02235174447, -187500.02235174447, -0.176, -0.768, -0.632, 192.0, 0.0, 0.0, 0.0, 0.0, 0.0, 0.0, 0.0, 0.0, 0.0, 1.6776148856947126E9, 0.0, 2023-02-28 12:08:05.694
51.0, 26536.929790607668, -4312.523223462489, 15231.551555580087, -3142.364697738254, 15213.401939082378, 7567.83128593341, -187500.02235174447, -187500.02235174447, -0.176, -0.768, -0.632, 192.0, 0.0, 0.0, 0.0, 0.0, 0.0, 0.0, 0.0, 0.0, 0.0, 1.677614885698872E9, 0.0, 2023-02-28 12:08:05.698
52.0, 26418.89022813919, -4310.511566461511, 14447.340601365639, -3138.207273269567, 14800.49816375949, 7270.173105022086, -187500.02235174447, -187500.02235174447, -0.176, -0.768, -0.632, 192.0, 0.0, 0.0, 0.0, 0.0, 0.0, 0.0, 0.0, 0.0, 0.0, 1.6776148857017722E9, 0.0, 2023-02-28 12:08:05.701
53.0, 26475.10486544429, -4314.624287441288, 14686.86189494871, -3148.24320653, 14915.766109915508, 7454.820865967377, -187500.02235174447, -187500.02235174447, -0.176, -0.768, -0.632, 192.0, 0.0, 0.0, 0.0, 0.0, 0.0, 0.0, 0.0, 0.0, 0.0, 1.6776148857058167E9, 0.0, 2023-02-28 12:08:05.705
54.0, 26598.9782332156, -4320.078113088383, 15514.859916551104, -3155.775744411438, 15349.70287677084, 7781.625721648422, -187500.02235174447, -187500.02235174447, -0.182, -0.768, -0.636, 192.0, 250.0, 80.0, 232.0, 0.0, 236.0, 32.0, 0.0, 0.0, 0.0, 1.6776148857107596E9, 0.0, 2023-02-28 12:08:05.710
55.0, 26552.64306695975, -4319.184043310171, 15374.08862997158, -3147.885578618715, 15288.347338241023, 7629.544452374513, -187500.02235174447, -187500.02235174447, -0.182, -0.768, -0.636, 192.0, 0.0, 0.0, 0.0, 0.0, 0.0, 0.0, 0.0, 0.0, 0.0, 1.677614885714764E9, 0.0, 2023-02-28 12:08:05.714
56.0, 26412.00589084696, -4318.3123252764135, 14538.11103559864, -3140.129523292723, 14850.856644017298, 7286.48987847446, -187500.02235174447, -187500.02235174447, -0.182, -0.768, -0.636, 192.0, 0.0, 0.0, 0.0, 0.0, 0.0, 0.0, 0.0, 0.0, 0.0, 1.677614885718809E9, 0.0, 2023-02-28 12:08:05.718
57.0, 26441.979580161522, -4319.832243899375, 14563.234396366406, -3146.991508840503, 14856.93631850914, 7387.117432012253, -187500.02235174447, -187500.02235174447, -0.182, -0.768, -0.636, 192.0, 0.0, 0.0, 0.0, 0.0, 0.0, 0.0, 0.0, 0.0, 0.0, 1.677614885722742E9, 0.0, 2023-02-28 12:08:05.722
58.0, 26597.83829424838, -4320.838072399863, 15401.581275651608, -3155.2169508000557, 15295.097565066526, 7746.667593320321, -187500.02235174447, -187500.02235174447, -0.182, -0.768, -0.636, 192.0, 0.0, 0.0, 0.0, 0.0, 0.0, 0.0, 0.0, 0.0, 0.0, 1.6776148857267773E9, 0.0, 2023-02-28 12:08:05.726
59.0, 26596.36307911433, -4321.620383455799, 15483.63452954704, -3149.71842166405, 15346.573632547097, 7686.072014101985, -187500.02235174447, -187500.02235174447, -0.182, -0.768, -0.636, 192.0, 0.0, 0.0, 0.0, 0.0, 0.0, 0.0, 0.0, 0.0, 0.0, 1.6776148857297642E9, 0.0, 2023-02-28 12:08:05.729
60.0, 26487.510083616984, -4321.754493922531, 14655.122417822173, -3140.5095029484637, 14912.94979011414, 7321.090378891276, -187500.02235174447, -187500.02235174447, -0.182, -0.768, -0.636, 192.0, 0.0, 0.0, 0.0, 0.0, 0.0, 0.0, 0.0, 0.0, 0.0, 1.6776148857338288E9, 0.0, 2023-02-28 12:08:05.733
61.0, 26478.52468234595, -4324.1237788347935, 14469.021793487287, -3146.05273557338, 14809.908248175176, 7328.265288861429, -187500.02235174447, -187500.02235174447, -0.182, -0.768, -0.636, 192.0, 0.0, 0.0, 0.0, 0.0, 0.0, 0.0, 0.0, 0.0, 0.0, 1.6776148857387652E9, 0.0, 2023-02-28 12:08:05.738
62.0, 26579.085180650378, -4324.213185812615, 15265.97324204126, -3155.440468244609, 15224.220183398747, 7693.202220583227, -187500.02235174447, -187500.02235174447, -0.182, -0.768, -0.636, 192.0, 0.0, 0.0, 0.0, 0.0, 0.0, 0.0, 0.0, 0.0, 0.0, 1.6776148857428174E9, 0.0, 2023-02-28 12:08:05.742
63.0, 26587.824712732403, -4321.016886355506, 15566.26892879831, -3152.2441687875, 15387.924359789415, 7732.898918735853, -187500.02235174447, -187500.02235174447, -0.182, -0.768, -0.636, 192.0, 0.0, 0.0, 0.0, 0.0, 0.0, 0.0, 0.0, 0.0, 0.0, 1.677614885746782E9, 0.0, 2023-02-28 12:08:05.746
64.0, 26451.456719810572, -4319.161691565716, 14801.392233537703, -3142.09647680479, 14993.796049808985, 7372.521742882936, -187500.02235174447, -187500.02235174447, -0.184, -0.764, -0.634, 192.0, 250.0, 64.0, 232.0, 32.0, 236.0, 48.0, 0.0, 0.0, 0.0, 1.677614885750836E9, 0.0, 2023-02-28 12:08:05.750
65.0, 26409.860123379247, -4320.033409599472, 14410.437871269927, -3144.421058228142, 14781.968567606042, 7290.423785498594, -187500.02235174447, -187500.02235174447, -0.184, -0.764, -0.634, 192.0, 0.0, 0.0, 0.0, 0.0, 0.0, 0.0, 0.0, 0.0, 0.0, 1.6776148857538524E9, 0.0, 2023-02-28 12:08:05.753
66.0, 26541.19897379863, -4321.530976477978, 15112.461461122211, -3155.440468244609, 15145.832615593985, 7632.427827409248, -187500.02235174447, -187500.02235174447, -0.184, -0.764, -0.634, 192.0, 0.0, 0.0, 0.0, 0.0, 0.0, 0.0, 0.0, 0.0, 0.0, 1.677614885757789E9, 0.0, 2023-02-28 12:08:05.757
67.0, 26608.25420716455, -4320.9498311221405, 15612.09000493169, -3155.3734130112425, 15413.740624635295, 7768.706413353255, -187500.02235174447, -187500.02235174447, -0.184, -0.764, -0.634, 192.0, 0.0, 0.0, 0.0, 0.0, 0.0, 0.0, 0.0, 0.0, 0.0, 1.6776148857618008E9, 0.0, 2023-02-28 12:08:05.761
68.0, 26484.939633004622, -4320.458092744123, 14956.91567145773, -3145.940976851103, 15078.352699083413, 7432.111493600785, -187500.02235174447, -187500.02235174447, -0.184, -0.764, -0.634, 192.0, 0.0, 0.0, 0.0, 0.0, 0.0, 0.0, 0.0, 0.0, 0.0, 1.6776148857668254E9, 0.0, 2023-02-28 12:08:05.766
69.0, 26400.27122500792, -4322.5368049784665, 14389.56134194867, -3146.1644942956564, 14778.25817802646, 7254.616290881192, -187500.02235174447, -187500.02235174447, -0.184, -0.764, -0.634, 192.0, 0.0, 0.0, 0.0, 0.0, 0.0, 0.0, 0.0, 0.0, 0.0, 1.6776148857708156E9, 0.0, 2023-02-28 12:08:05.770
70.0, 26524.05518580141, -4320.547499721944, 14952.735895244587, -3154.367584510754, 15068.383821056346, 7555.157846827251, -187500.02235174447, -187500.02235174447, -0.184, -0.764, -0.634, 192.0, 0.0, 0.0, 0.0, 0.0, 0.0, 0.0, 0.0, 0.0, 0.0, 1.6776148857748132E9, 0.0, 2023-02-28 12:08:05.774
71.0, 26618.491306125085, -4319.184043310171, 15615.241600899888, -3156.5133519784636, 15419.775595638228, 7778.585884402501, -187500.02235174447, -187500.02235174447, -0.184, -0.764, -0.634, 192.0, 0.0, 0.0, 0.0, 0.0, 0.0, 0.0, 0.0, 0.0, 0.0, 1.6776148857778137E9, 0.0, 2023-02-28 12:08:05.777
72.0, 26510.554732150405, -4316.814758397908, 15115.903629768329, -3146.075087317835, 15163.065810569027, 7496.976256010086, -187500.02235174447, -187500.02235174447, -0.184, -0.764, -0.634, 192.0, 0.0, 0.0, 0.0, 0.0, 0.0, 0.0, 0.0, 0.0, 0.0, 1.6776148857818387E9, 0.0, 2023-02-28 12:08:05.781
73.0, 26396.69494589507, -4317.172386309193, 14405.587542723126, -3142.6776221606283, 14787.377689764226, 7249.408334423106, -187500.02235174447, -187500.02235174447, -0.184, -0.764, -0.634, 192.0, 0.0, 0.0, 0.0, 0.0, 0.0, 0.0, 0.0, 0.0, 0.0, 1.67761488578594E9, 0.0, 2023-02-28 12:08:05.785
74.0, 26473.316725887864, -4319.340505521358, 14796.027814868428, -3151.7300786650276, 14986.241160183092, 7494.29404667545, -187500.02235174447, -187500.02235174447, -0.18, -0.764, -0.63, 192.0, 250.0, 96.0, 232.0, 32.0, 236.0, 80.0, 0.0, 0.0, 0.0, 1.677614885789807E9, 0.0, 2023-02-28 12:08:05.789
75.0, 26597.637128548282, -4321.173348566693, 15573.645004468563, -3156.692165934106, 15396.775650593718, 7784.576151916523, -187500.02235174447, -187500.02235174447, -0.18, -0.764, -0.63, 192.0, 0.0, 0.0, 0.0, 0.0, 0.0, 0.0, 0.0, 0.0, 0.0, 1.6776148857948384E9, 0.0, 2023-02-28 12:08:05.794
76.0, 26531.319502749386, -4319.340505521358, 15265.034468774138, -3146.991508840503, 15242.056875474082, 7566.937216155197, -187500.02235174447, -187500.02235174447, -0.18, -0.764, -0.63, 192.0, 0.0, 0.0, 0.0, 0.0, 0.0, 0.0, 0.0, 0.0, 0.0, 1.677614885798859E9, 0.0, 2023-02-28 12:08:05.798
77.0, 26413.436402492098, -4314.75839790802, 14460.975165483376, -3139.883654103715, 14821.665265758666, 7254.213959480997, -187500.02235174447, -187500.02235174447, -0.18, -0.764, -0.63, 192.0, 0.0, 0.0, 0.0, 0.0, 0.0, 0.0, 0.0, 0.0, 0.0, 1.677614885802852E9, 0.0, 2023-02-28 12:08:05.802
78.0, 26462.90081297169, -4316.18890955316, 14654.273051532871, -3147.103267562779, 14913.620342447799, 7422.969630118565, -187500.02235174447, -187500.02235174447, -0.18, -0.764, -0.63, 192.0, 0.0, 0.0, 0.0, 0.0, 0.0, 0.0, 0.0, 0.0, 0.0, 1.6776148858058505E9, 0.0, 2023-02-28 12:08:05.805
79.0, 26612.12105895532, -4316.211261297615, 15490.742384283827, -3153.853494388282, 15349.859338982027, 7761.933834783296, -187500.02235174447, -187500.02235174447, -0.18, -0.764, -0.63, 192.0, 0.0, 0.0, 0.0, 0.0, 0.0, 0.0, 0.0, 0.0, 0.0, 1.6776148858098385E9, 0.0, 2023-02-28 12:08:05.809
80.0, 26580.716857995616, -4312.076188573384, 15397.62501688302, -3146.365659995754, 15310.922600140882, 7631.51140588658, -187500.02235174447, -187500.02235174447, -0.18, -0.764, -0.63, 192.0, 0.0, 0.0, 0.0, 0.0, 0.0, 0.0, 0.0, 0.0, 0.0, 1.6776148858138382E9, 0.0, 2023-02-28 12:08:05.813
81.0, 26417.52677172742, -4312.813796140408, 14558.227605608417, -3138.7660668809494, 14870.61558611579, 7284.008834839921, -187500.02235174447, -187500.02235174447, -0.18, -0.764, -0.63, 192.0, 0.0, 0.0, 0.0, 0.0, 0.0, 0.0, 0.0, 0.0, 0.0, 1.6776148858179007E9, 0.0, 2023-02-28 12:08:05.817
82.0, 26433.463565524053, -4315.920688619696, 14537.373428031617, -3145.270424517444, 14850.409609128192, 7366.084440479808, -187500.02235174447, -187500.02235174447, -0.18, -0.764, -0.63, 192.0, 0.0, 0.0, 0.0, 0.0, 0.0, 0.0, 0.0, 0.0, 0.0, 1.6776148858228712E9, 0.0, 2023-02-28 12:08:05.822
83.0, 26585.70129700915, -4316.770054908998, 15373.70865031584, -3153.160590310167, 15286.64860566242, 7729.188529156271, -187500.02235174447, -187500.02235174447, -0.18, -0.764, -0.63, 192.0, 0.0, 0.0, 0.0, 0.0, 0.0, 0.0, 0.0, 0.0, 0.0, 1.6776148858268547E9, 0.0, 2023-02-28 12:08:05.826
84.0, 26607.807172275447, -4314.579583952378, 15504.421651890476, -3147.0585640738686, 15364.142103688968, 7693.00105488313, -187500.02235174447, -187500.02235174447, -0.18, -0.764, -0.626, 192.0, 250.0, 96.0, 232.0, 32.0, 236.0, 112.0, 0.0, 0.0, 0.0, 1.6776148858309329E9, 0.0, 2023-02-28 12:08:05.830
85.0, 26471.036847953423, -4311.42798798418, 14682.659766991112, -3136.553244179874, 14939.257793338036, 7330.098131906764, -187500.02235174447, -187500.02235174447, -0.18, -0.764, -0.626, 192.0, 0.0, 0.0, 0.0, 0.0, 0.0, 0.0, 0.0, 0.0, 0.0, 1.6776148858339329E9, 0.0, 2023-02-28 12:08:05.833
86.0, 26445.354693574274, -4312.255002529026, 14447.675877532469, -3140.3306889928213, 14811.003483653485, 7314.094282876764, -187500.02235174447, -187500.02235174447, -0.18, -0.764, -0.626, 192.0, 0.0, 0.0, 0.0, 0.0, 0.0, 0.0, 0.0, 0.0, 0.0, 1.6776148858378956E9, 0.0, 2023-02-28 12:08:05.837
87.0, 26592.49622732356, -4312.836147884864, 15226.812985755561, -3149.941939108603, 15217.87228797344, 7672.795077895532, -187500.02235174447, -187500.02235174447, -0.18, -0.764, -0.626, 192.0, 0.0, 0.0, 0.0, 0.0, 0.0, 0.0, 0.0, 0.0, 0.0, 1.6776148858419251E9, 0.0, 2023-02-28 12:08:05.841
88.0, 26611.048175221465, -4311.316229261903, 15575.567254491718, -3147.371488496243, 15410.007883311258, 7734.620003058912, -187500.02235174447, -187500.02235174447, -0.18, -0.764, -0.626, 192.0, 0.0, 0.0, 0.0, 0.0, 0.0, 0.0, 0.0, 0.0, 0.0, 1.6776148858458903E9, 0.0, 2023-02-28 12:08:05.845
89.0, 26454.04952216739, -4306.711769904109, 14827.83434722833, -3136.6650029021507, 15023.92620133474, 7380.233094720018, -187500.02235174447, -187500.02235174447, -0.18, -0.764, -0.626, 192.0, 0.0, 0.0, 0.0, 0.0, 0.0, 0.0, 0.0, 0.0, 0.0, 1.6776148858500168E9, 0.0, 2023-02-28 12:08:05.850
90.0, 26401.053536063857, -4307.896412360241, 14394.143449562009, -3138.6766599031284, 14790.171657821138, 7277.593884181248, -187500.02235174447, -187500.02235174447, -0.18, -0.764, -0.626, 192.0, 0.0, 0.0, 0.0, 0.0, 0.0, 0.0, 0.0, 0.0, 0.0, 1.6776148858548849E9, 0.0, 2023-02-28 12:08:05.854
91.0, 26533.62173242828, -4309.349275749836, 15069.970794912673, -3148.7572966524717, 15138.836519579474, 7614.568783589457, -187500.02235174447, -187500.02235174447, -0.18, -0.764, -0.626, 192.0, 0.0, 0.0, 0.0, 0.0, 0.0, 0.0, 0.0, 0.0, 0.0, 1.6776148858589308E9, 0.0, 2023-02-28 12:08:05.858
92.0, 26610.019994976523, -4308.991647838551, 15610.368920608631, -3149.0702210748464, 15427.53165096422, 7768.862875564441, -187500.02235174447, -187500.02235174447, -0.18, -0.764, -0.626, 192.0, 0.0, 0.0, 0.0, 0.0, 0.0, 0.0, 0.0, 0.0, 0.0, 1.6776148858619716E9, 0.0, 2023-02-28 12:08:05.861
93.0, 26490.080534229342, -4307.807005382419, 14986.978767750117, -3139.436619214609, 15106.024158719083, 7443.086200128341, -187500.02235174447, -187500.02235174447, -0.18, -0.764, -0.626, 192.0, 0.0, 0.0, 0.0, 0.0, 0.0, 0.0, 0.0, 0.0, 0.0, 1.677614885865919E9, 0.0, 2023-02-28 12:08:05.865
94.0, 26406.2838442664, -4307.807005382419, 14384.040461068209, -3138.9001773476816, 14784.762535662954, 7255.935043804056, -187500.02235174447, -187500.02235174447, -0.186, -0.764, -0.628, 192.0, 250.0, 48.0, 232.0, 32.0, 236.0, 96.0, 0.0, 0.0, 0.0, 1.677614885869954E9, 0.0, 2023-02-28 12:08:05.869
95.0, 26520.836534599846, -4308.5669646939, 14912.14512731375, -3148.6678896746507, 15054.861015660885, 7549.435800246692, -187500.02235174447, -187500.02235174447, -0.186, -0.764, -0.628, 192.0, 0.0, 0.0, 0.0, 0.0, 0.0, 0.0, 0.0, 0.0, 0.0, 1.6776148858739667E9, 0.0, 2023-02-28 12:08:05.873
96.0, 26636.8867918118, -4309.639848427755, 15606.189144395488, -3152.199465298589, 15424.178889295923, 7785.626683905922, -187500.02235174447, -187500.02235174447, -0.186, -0.764, -0.628, 192.0, 0.0, 0.0, 0.0, 0.0, 0.0, 0.0, 0.0, 0.0, 0.0, 1.6776148858780403E9, 0.0, 2023-02-28 12:08:05.878
97.0, 26541.981284854566, -4308.455205971623, 15146.436112694279, -3142.9905465830025, 15190.446697526777, 7511.281372461483, -187500.02235174447, -187500.02235174447, -0.186, -0.764, -0.628, 192.0, 0.0, 0.0, 0.0, 0.0, 0.0, 0.0, 0.0, 0.0, 0.0, 1.677614885882948E9, 0.0, 2023-02-28 12:08:05.882
98.0, 26430.200210833576, -4307.829357126875, 14412.181307337441, -3138.6096046697626, 14804.208553339071, 7248.022526266876, -187500.02235174447, -187500.02235174447, -0.186, -0.764, -0.628, 192.0, 0.0, 0.0, 0.0, 0.0, 0.0, 0.0, 0.0, 0.0, 0.0, 1.6776148858869529E9, 0.0, 2023-02-28 12:08:05.886
99.0, 26513.706328118602, -4308.119929804794, 14757.828683594309, -3147.52795070743, 14976.518151345033, 7476.345595877839, -187500.02235174447, -187500.02235174447, -0.186, -0.764, -0.628, 192.0, 0.0, 0.0, 0.0, 0.0, 0.0, 0.0, 0.0, 0.0, 0.0, 1.6776148858899388E9, 0.0, 2023-02-28 12:08:05.889
100.0, 26658.500928700083, -4305.080092558872, 15553.304917014233, -3151.7971338983934, 15395.94863604887, 7779.010567547151, -187500.02235174447, -187500.02235174447, -0.186, -0.764, -0.628, 192.0, 0.0, 0.0, 0.0, 0.0, 0.0, 0.0, 0.0, 0.0, 0.0, 1.677614885893946E9, 0.0, 2023-02-28 12:08:05.893
101.0, 26595.446657591663, -4301.436758212657, 15290.515457453188, -3141.6717936601394, 15266.219111230268, 7581.6893674957, -187500.02235174447, -187500.02235174447, -0.186, -0.764, -0.628, 192.0, 0.0, 0.0, 0.0, 0.0, 0.0, 0.0, 0.0, 0.0, 0.0, 1.6776148858980067E9, 0.0, 2023-02-28 12:08:05.898
102.0, 26461.53735655992, -4297.033464554962, 14475.14617146804, -3134.6980493900837, 14839.07727468935, 7262.5735119072815, -187500.02235174447, -187500.02235174447, -0.186, -0.764, -0.628, 192.0, 0.0, 0.0, 0.0, 0.0, 0.0, 0.0, 0.0, 0.0, 0.0, 1.677614885901986E9, 0.0, 2023-02-28 12:08:05.901
103.0, 26526.379767224764, -4294.1277377757715, 14619.694902860512, -3140.9341860931145, 14908.032406333972, 7416.219403293062, -187500.02235174447, -187500.02235174447, -0.186, -0.764, -0.628, 192.0, 0.0, 0.0, 0.0, 0.0, 0.0, 0.0, 0.0, 0.0, 0.0, 1.6776148859059668E9, 0.0, 2023-02-28 12:08:05.905
104.0, 26675.979992864133, -4290.506755174012, 15459.20407285739, -3145.8515698732817, 15349.41230409292, 7760.659785349344, -187500.02235174447, -187500.02235174447, -0.186, -0.758, -0.626, 192.0, 250.0, 48.0, 232.0, 80.0, 236.0, 112.0, 0.0, 0.0, 0.0, 1.6776148859109764E9, 0.0, 2023-02-28 12:08:05.910
105.0, 26645.89454482729, -4285.768185349487, 15412.265409501244, -3137.3132034913547, 15336.001257419737, 7644.60952813739, -187500.02235174447, -187500.02235174447, -0.186, -0.758, -0.626, 192.0, 0.0, 0.0, 0.0, 0.0, 0.0, 0.0, 0.0, 0.0, 0.0, 1.67761488591499E9, 0.0, 2023-02-28 12:08:05.914
106.0, 26503.089249502333, -4279.844973068831, 14568.665870269046, -3127.657249886662, 14899.605798674322, 7288.523887219893, -187500.02235174447, -187500.02235174447, -0.186, -0.758, -0.626, 192.0, 0.0, 0.0, 0.0, 0.0, 0.0, 0.0, 0.0, 0.0, 0.0, 1.6776148859180014E9, 0.0, 2023-02-28 12:08:05.918
107.0, 26522.35645322281, -4276.827487567364, 14497.63202639008, -3131.7923226108937, 14857.852740031809, 7350.259405405451, -187500.02235174447, -187500.02235174447, -0.186, -0.758, -0.626, 192.0, 0.0, 0.0, 0.0, 0.0, 0.0, 0.0, 0.0, 0.0, 0.0, 1.6776148859219985E9, 0.0, 2023-02-28 12:08:05.921
108.0, 26678.215167309663, -4275.128754988761, 15323.305466569123, -3139.503674447975, 15295.03050983316, 7709.250773102138, -187500.02235174447, -187500.02235174447, -0.186, -0.758, -0.626, 192.0, 0.0, 0.0, 0.0, 0.0, 0.0, 0.0, 0.0, 0.0, 0.0, 1.6776148859260051E9, 0.0, 2023-02-28 12:08:05.926
109.0, 26693.39200179482, -4272.848877054319, 15503.728747812362, -3134.8098081123603, 15401.894200073983, 7691.235267071161, -187500.02235174447, -187500.02235174447, -0.186, -0.758, -0.626, 192.0, 0.0, 0.0, 0.0, 0.0, 0.0, 0.0, 0.0, 0.0, 0.0, 1.6776148859299908E9, 0.0, 2023-02-28 12:08:05.929
110.0, 26555.034703616468, -4268.982025263551, 14696.249627619938, -3124.885633574204, 14982.307253158959, 7326.745370238468, -187500.02235174447, -187500.02235174447, -0.186, -0.758, -0.626, 192.0, 0.0, 0.0, 0.0, 0.0, 0.0, 0.0, 0.0, 0.0, 0.0, 1.6776148859340465E9, 0.0, 2023-02-28 12:08:05.934
111.0, 26541.713063921103, -4265.673967084166, 14417.411615539982, -3127.8584155867597, 14828.415492584169, 7298.49276524696, -187500.02235174447, -187500.02235174447, -0.186, -0.758, -0.626, 192.0, 0.0, 0.0, 0.0, 0.0, 0.0, 0.0, 0.0, 0.0, 0.0, 1.6776148859389997E9, 0.0, 2023-02-28 12:08:05.938
112.0, 26690.843902926914, -4263.282330427448, 15176.633319453398, -3136.7320581355166, 15223.504927576178, 7658.109981788395, -187500.02235174447, -187500.02235174447, -0.186, -0.758, -0.626, 192.0, 0.0, 0.0, 0.0, 0.0, 0.0, 0.0, 0.0, 0.0, 0.0, 1.677614885942008E9, 0.0, 2023-02-28 12:08:05.942
113.0, 26741.805880285014, -4260.220141437071, 15569.644042211063, -3133.5357586784075, 15437.969915624848, 7742.107837451439, -187500.02235174447, -187500.02235174447, -0.186, -0.758, -0.626, 192.0, 0.0, 0.0, 0.0, 0.0, 0.0, 0.0, 0.0, 0.0, 0.0, 1.6776148859460137E9, 0.0, 2023-02-28 12:08:05.946
114.0, 26615.585579345894, -4255.9733099905625, 14847.101550948806, -3122.6728108731286, 15065.433390788245, 7388.726757613034, -187500.02235174447, -187500.02235174447, -0.186, -0.758, -0.626, 192.0, 0.0, 0.0, 0.0, 0.0, 0.0, 0.0, 0.0, 0.0, 0.0, 1.6776148859500377E9, 0.0, 2023-02-28 12:08:05.950
115.0, 26556.465215261607, -4258.923740258663, 14378.363117976562, -3126.0255725414245, 14808.92477141914, 7262.931139818566, -187500.02235174447, -187500.02235174447, -0.178, -0.76, -0.626, 192.0, 250.0, 112.0, 232.0, 64.0, 236.0, 112.0, 0.0, 0.0, 0.0, 1.677614885954039E9, 0.0, 2023-02-28 12:08:05.954
116.0, 26683.37842027884, -4260.220141437071, 15027.390721725313, -3136.821465113338, 15140.870528324907, 7592.462908323158, -187500.02235174447, -187500.02235174447, -0.178, -0.76, -0.626, 192.0, 0.0, 0.0, 0.0, 0.0, 0.0, 0.0, 0.0, 0.0, 0.0, 1.6776148859580815E9, 0.0, 2023-02-28 12:08:05.958
117.0, 26769.29852596504, -4258.610815836289, 15604.780984494804, -3137.6708314026396, 15447.715276207362, 7771.120401754428, -187500.02235174447, -187500.02235174447, -0.178, -0.76, -0.626, 192.0, 0.0, 0.0, 0.0, 0.0, 0.0, 0.0, 0.0, 0.0, 0.0, 1.6776148859620385E9, 0.0, 2023-02-28 12:08:05.962
118.0, 26655.41638796525, -4255.816847779375, 15013.510288418567, -3127.52313941993, 15145.229118493691, 7459.067697413886, -187500.02235174447, -187500.02235174447, -0.178, -0.76, -0.626, 192.0, 0.0, 0.0, 0.0, 0.0, 0.0, 0.0, 0.0, 0.0, 0.0, 1.6776148859670677E9, 0.0, 2023-02-28 12:08:05.967
119.0, 26559.862680418813, -4258.499057114012, 14379.503056943782, -3127.0314010419133, 14806.756652206977, 7251.777619335368, -187500.02235174447, -187500.02235174447, -0.178, -0.76, -0.626, 192.0, 0.0, 0.0, 0.0, 0.0, 0.0, 0.0, 0.0, 0.0, 0.0, 1.6776148859700367E9, 0.0, 2023-02-28 12:08:05.970
120.0, 26675.89058588631, -4259.281368169948, 14871.42024891618, -3136.687354646606, 15055.710381950186, 7531.48734944908, -187500.02235174447, -187500.02235174447, -0.178, -0.76, -0.626, 192.0, 0.0, 0.0, 0.0, 0.0, 0.0, 0.0, 0.0, 0.0, 0.0, 1.6776148859730349E9, 0.0, 2023-02-28 12:08:05.973
121.0, 26791.15853204233, -4259.79545829242, 15588.866542442625, -3138.7437151364943, 15436.874680146539, 7786.364291472947, -187500.02235174447, -187500.02235174447, -0.178, -0.76, -0.626, 192.0, 0.0, 0.0, 0.0, 0.0, 0.0, 0.0, 0.0, 0.0, 0.0, 1.6776148859780738E9, 0.0, 2023-02-28 12:08:05.978
122.0, 26702.489161788126, -4257.426173380158, 15169.391354249878, -3128.372505709232, 15227.036503200115, 7529.989782570575, -187500.02235174447, -187500.02235174447, -0.178, -0.76, -0.626, 192.0, 0.0, 0.0, 0.0, 0.0, 0.0, 0.0, 0.0, 0.0, 0.0, 1.6776148859820375E9, 0.0, 2023-02-28 12:08:05.982
123.0, 26572.267898591508, -4253.246397167015, 14413.410653282483, -3122.941031806592, 14830.494204818513, 7253.252834469418, -187500.02235174447, -187500.02235174447, -0.178, -0.76, -0.626, 192.0, 0.0, 0.0, 0.0, 0.0, 0.0, 0.0, 0.0, 0.0, 0.0, 1.6776148859860797E9, 0.0, 2023-02-28 12:08:05.986
124.0, 26642.005341292068, -4248.776048275954, 14719.271924408904, -3130.115941776746, 14985.995290994084, 7468.567188807391, -187500.02235174447, -187500.02235174447, -0.178, -0.76, -0.626, 192.0, 0.0, 0.0, 0.0, 0.0, 0.0, 0.0, 0.0, 0.0, 0.0, 1.6776148859900641E9, 0.0, 2023-02-28 12:08:05.990
125.0, 26777.412209202317, -4245.736211030032, 15528.74034985785, -3134.6086424122623, 15415.975799080827, 7784.240875749693, -187500.02235174447, -187500.02235174447, -0.178, -0.766, -0.626, 192.0, 250.0, 112.0, 232.0, 16.0, 236.0, 112.0, 0.0, 0.0, 0.0, 1.6776148859940825E9, 0.0, 2023-02-28 12:08:05.994
126.0, 26722.00223469761, -4243.456333095591, 15313.157774586412, -3125.6008893967737, 15313.604809475519, 7604.175222417739, -187500.02235174447, -187500.02235174447, -0.178, -0.766, -0.626, 192.0, 0.0, 0.0, 0.0, 0.0, 0.0, 0.0, 0.0, 0.0, 0.0, 1.6776148859980657E9, 0.0, 2023-02-28 12:08:05.998
127.0, 26595.334898869383, -4243.07635343985, 14486.925540795988, -3118.4706829155307, 14879.891560064741, 7276.364538236206, -187500.02235174447, -187500.02235174447, -0.178, -0.766, -0.626, 192.0, 0.0, 0.0, 0.0, 0.0, 0.0, 0.0, 0.0, 0.0, 0.0, 1.6776148860011184E9, 0.0, 2023-02-28 12:08:06.001
128.0, 26636.931495300712, -4244.104533684795, 14586.860190255666, -3125.0197440409356, 14923.276296052492, 7412.151385802196, -187500.02235174447, -187500.02235174447, -0.178, -0.766, -0.626, 192.0, 0.0, 0.0, 0.0, 0.0, 0.0, 0.0, 0.0, 0.0, 0.0, 1.6776148860060503E9, 0.0, 2023-02-28 12:08:06.006
129.0, 26771.31018296602, -4248.664289553677, 15430.660895187963, -3133.2898894893992, 15367.785438035184, 7762.939663283785, -187500.02235174447, -187500.02235174447, -0.178, -0.766, -0.626, 192.0, 0.0, 0.0, 0.0, 0.0, 0.0, 0.0, 0.0, 0.0, 0.0, 1.6776148860100713E9, 0.0, 2023-02-28 12:08:06.010
130.0, 26753.138214723855, -4250.765353532476, 15437.411122013466, -3128.148988264679, 15378.42486839591, 7670.269330772082, -187500.02235174447, -187500.02235174447, -0.178, -0.766, -0.626, 192.0, 0.0, 0.0, 0.0, 0.0, 0.0, 0.0, 0.0, 0.0, 0.0, 1.6776148860140932E9, 0.0, 2023-02-28 12:08:06.014
131.0, 26615.764393301535, -4247.233777908537, 14597.141992705107, -3118.984773038003, 14937.29083982597, 7310.9426869085655, -187500.02235174447, -187500.02235174447, -0.178, -0.766, -0.626, 192.0, 0.0, 0.0, 0.0, 0.0, 0.0, 0.0, 0.0, 0.0, 0.0, 1.6776148860180824E9, 0.0, 2023-02-28 12:08:06.018
132.0, 26610.60114033236, -4249.178379676149, 14483.10339249413, -3125.3103167188547, 14868.46981864808, 7352.338117639794, -187500.02235174447, -187500.02235174447, -0.178, -0.766, -0.626, 192.0, 0.0, 0.0, 0.0, 0.0, 0.0, 0.0, 0.0, 0.0, 0.0, 1.677614886022073E9, 0.0, 2023-02-28 12:08:06.022
133.0, 26751.841813545445, -4248.194902920116, 15302.183068058857, -3134.005145311969, 15299.07617557957, 7713.564659782012, -187500.02235174447, -187500.02235174447, -0.178, -0.766, -0.626, 192.0, 0.0, 0.0, 0.0, 0.0, 0.0, 0.0, 0.0, 0.0, 0.0, 1.6776148860271325E9, 0.0, 2023-02-28 12:08:06.027
134.0, 26771.421941688295, -4245.467990096568, 15527.890983568548, -3129.691258632095, 15429.431549242921, 7716.202165627738, -187500.02235174447, -187500.02235174447, -0.178, -0.766, -0.626, 192.0, 0.0, 0.0, 0.0, 0.0, 0.0, 0.0, 0.0, 0.0, 0.0, 1.677614886030125E9, 0.0, 2023-02-28 12:08:06.030
135.0, 26636.350349944874, -4240.282385382937, 14729.777244302899, -3118.42597942662, 15018.673541387743, 7350.952309483566, -187500.02235174447, -187500.02235174447, -0.18, -0.76, -0.624, 192.0, 250.0, 96.0, 232.0, 64.0, 236.0, 128.0, 0.0, 0.0, 0.0, 1.6776148860341585E9, 0.0, 2023-02-28 12:08:06.034
136.0, 26614.64680607877, -4238.807170248887, 14405.878115401045, -3120.683505616606, 14844.352286380803, 7296.6152187127145, -187500.02235174447, -187500.02235174447, -0.18, -0.76, -0.624, 192.0, 0.0, 0.0, 0.0, 0.0, 0.0, 0.0, 0.0, 0.0, 0.0, 1.6776148860381231E9, 0.0, 2023-02-28 12:08:06.038
137.0, 26754.21109845771, -4242.137580172727, 15147.263127239125, -3131.1888255106005, 15227.751759022685, 7650.733906118144, -187500.02235174447, -187500.02235174447, -0.18, -0.76, -0.624, 192.0, 0.0, 0.0, 0.0, 0.0, 0.0, 0.0, 0.0, 0.0, 0.0, 1.6776148860421116E9, 0.0, 2023-02-28 12:08:06.042
138.0, 26805.486000238183, -4243.501036584501, 15582.60805399514, -3131.1217702772346, 15461.05926764718, 7755.809456802543, -187500.02235174447, -187500.02235174447, -0.18, -0.76, -0.624, 192.0, 0.0, 0.0, 0.0, 0.0, 0.0, 0.0, 0.0, 0.0, 0.0, 1.6776148860481815E9, 0.0, 2023-02-28 12:08:06.048
139.0, 26680.38328652183, -4239.880053982742, 14881.925568810175, -3119.5435666493854, 15096.725833025675, 7411.860813124277, -187500.02235174447, -187500.02235174447, -0.18, -0.76, -0.624, 192.0, 0.0, 0.0, 0.0, 0.0, 0.0, 0.0, 0.0, 0.0, 0.0, 1.6776148860511422E9, 0.0, 2023-02-28 12:08:06.051
140.0, 26605.862570507834, -4237.086085925828, 14367.835446338111, -3117.66602011514, 14822.805204725886, 7271.469506200494, -187500.02235174447, -187500.02235174447, -0.18, -0.76, -0.624, 192.0, 0.0, 0.0, 0.0, 0.0, 0.0, 0.0, 0.0, 0.0, 0.0, 1.677614886054126E9, 0.0, 2023-02-28 12:08:06.054
141.0, 26720.14703990782, -4235.74498125851, 14987.761078806054, -3125.6455928856844, 15146.279650483091, 7593.066405423451, -187500.02235174447, -187500.02235174447, -0.18, -0.76, -0.624, 192.0, 0.0, 0.0, 0.0, 0.0, 0.0, 0.0, 0.0, 0.0, 0.0, 1.6776148860581303E9, 0.0, 2023-02-28 12:08:06.058
142.0, 26814.471401509214, -4231.229928878538, 15598.343682091676, -3126.0255725414245, 15471.944567196915, 7788.957093829763, -187500.02235174447, -187500.02235174447, -0.18, -0.76, -0.624, 192.0, 0.0, 0.0, 0.0, 0.0, 0.0, 0.0, 0.0, 0.0, 0.0, 1.6776148860621412E9, 0.0, 2023-02-28 12:08:06.062
143.0, 26707.272435101564, -4227.0948561543055, 15041.74054166562, -3115.654363114162, 15185.238741068692, 7489.108441961818, -187500.02235174447, -187500.02235174447, -0.18, -0.76, -0.624, 192.0, 0.0, 0.0, 0.0, 0.0, 0.0, 0.0, 0.0, 0.0, 0.0, 1.6776148860662594E9, 0.0, 2023-02-28 12:08:06.066
144.0, 26605.54964608546, -4227.698353254599, 14373.959824318867, -3114.693238102584, 14827.83434722833, 7264.696927630535, -187500.02235174447, -187500.02235174447, -0.18, -0.76, -0.624, 192.0, 0.0, 0.0, 0.0, 0.0, 0.0, 0.0, 0.0, 0.0, 0.0, 1.677614886070174E9, 0.0, 2023-02-28 12:08:06.070
